1054dcabina4cara
Integration time [ms]:  39.939
Averaging Nr. [scans]: 13
Smoothing Nr. [pixels]: 3
Data measured with spectrometer [name]: 0905077U1
Wave   ;Sample   ;Dark     ;Reference;Scope
[nm]   ;[counts] ;[counts] ;[counts] 

 247.50;   69.538;    6.217;    7.233
 247.67;   89.692;   -4.033;   15.250
 247.84;   69.538;    1.817;   16.967
 248.01;   78.659;   -0.795;   11.955
 248.17;   80.527;   -1.440;   13.062
 248.34;   76.198;   -1.681;   12.526
 248.51;   75.692;   -2.974;   11.976
 248.68;   74.879;   -1.910;   10.869
 248.85;   78.110;   -2.488;   11.690
 249.02;   80.374;   -2.871;   10.707
 249.18;   80.352;   -1.479;   10.376
 249.35;   79.187;   -2.519;    9.621
 249.52;   83.165;   -2.612;   11.176
 249.69;   83.802;   -0.862;   11.031
 249.86;   86.637;   -1.460;   13.110
 250.02;   84.549;   -0.329;   12.450
 250.19;   79.297;   -1.402;   13.643
 250.36;   77.516;   -1.129;   13.993
 250.53;   78.769;   -0.393;   15.090
 250.70;   75.890;   -0.148;   13.840
 250.87;   76.308;   -1.907;   12.671
 251.03;   74.791;   -2.767;   10.869
 251.20;   74.462;   -2.964;   11.490
 251.37;   79.099;   -3.014;   11.479
 251.54;   80.176;   -3.183;   12.443
 251.71;   80.901;   -4.281;   13.183
 251.87;   82.022;   -3.726;   12.929
 252.04;   80.725;   -2.262;   14.774
 252.21;   81.319;   -2.164;   17.538
 252.38;   79.319;   -2.510;   17.812
 252.55;   78.022;   -0.669;   18.510
 252.71;   78.220;   -0.500;   19.545
 252.88;   76.440;    0.598;   19.662
 253.05;   77.780;    0.100;   21.164
 253.22;   79.956;   -0.383;   23.576
 253.39;   82.176;    0.729;   23.517
 253.56;   84.879;   -0.126;   25.386
 253.72;   89.692;   -1.252;   26.393
 253.89;   93.451;   -1.155;   28.700
 254.06;   96.110;   -1.110;   30.555
 254.23;   96.440;   -1.202;   31.890
 254.40;  100.374;   -0.700;   32.783
 254.56;   99.033;   -1.640;   35.224
 254.73;  100.330;   -0.519;   36.183
 254.90;   95.385;    0.674;   37.014
 255.07;   94.088;    0.681;   35.583
 255.24;   93.582;    0.855;   34.681
 255.40;   96.110;    3.233;   34.336
 255.57;   92.176;    2.512;   33.005
 255.74;   88.154;    1.995;   30.955
 255.91;   87.736;    0.893;   31.176
 256.08;   89.385;    0.967;   31.612
 256.24;   88.396;    0.874;   33.014
 256.41;   89.736;    1.557;   34.088
 256.58;   89.758;   -0.193;   34.919
 256.75;   94.527;    0.662;   35.679
 256.92;   98.022;    1.121;   37.243
 257.08;   95.538;    2.176;   36.755
 257.25;   94.198;    0.331;   36.786
 257.42;   92.813;    0.538;   35.660
 257.59;   89.187;   -0.974;   35.624
 257.75;   85.341;   -2.081;   35.631
 257.92;   80.659;   -3.279;   35.300
 258.09;   78.220;   -3.281;   35.279
 258.26;   78.725;   -2.907;   35.500
 258.43;   78.659;   -0.586;   35.526
 258.59;   80.308;   -0.698;   35.729
 258.76;   81.429;   -0.186;   34.326
 258.93;   84.571;    0.731;   34.814
 259.10;   87.055;    0.957;   35.288
 259.27;   90.286;    1.417;   34.529
 259.43;   95.055;    0.614;   33.117
 259.60;   97.538;   -0.421;   32.443
 259.77;   94.703;   -1.405;   32.307
 259.94;   95.692;   -2.193;   34.033
 260.11;   93.736;   -1.119;   33.564
 260.27;   93.407;   -1.174;   32.957
 260.44;   93.429;    0.224;   32.469
 260.61;   90.286;    0.245;   34.243
 260.78;   89.736;    0.348;   35.107
 260.94;   94.505;    0.940;   36.367
 261.11;   96.330;    2.786;   35.221
 261.28;   95.209;    2.360;   35.348
 261.45;   95.011;    2.671;   35.021
 261.62;   98.330;    2.379;   36.100
 261.78;  100.857;    3.043;   36.174
 261.95;  100.000;    3.436;   36.100
 262.12;   96.286;    3.443;   35.831
 262.29;   94.637;    1.398;   36.729
 262.45;   98.527;    1.290;   37.421
 262.62;  103.297;    1.398;   39.100
 262.79;   97.560;    0.395;   39.060
 262.96;   96.703;   -0.345;   38.881
 263.13;   97.648;   -0.805;   37.536
 263.29;   99.604;   -1.336;   37.443
 263.46;  100.022;   -0.271;   37.202
 263.63;   97.670;    0.388;   35.852
 263.80;   93.297;    0.424;   34.926
 263.96;   93.011;    0.188;   35.014
 264.13;   93.604;    0.557;   34.050
 264.30;   94.198;   -0.964;   34.719
 264.47;   94.176;   -0.167;   35.650
 264.63;   96.615;    0.769;   35.357
 264.80;   96.110;   -0.138;   35.764
 264.97;   93.846;   -0.317;   36.929
 265.14;   92.418;    1.167;   37.364
 265.31;   90.945;    1.169;   39.157
 265.47;   91.055;    2.605;   39.926
 265.64;   90.813;    0.921;   38.967
 265.81;   86.659;    0.414;   38.869
 265.98;   86.286;    0.302;   38.433
 266.14;   87.055;    1.081;   37.212
 266.31;   89.187;    0.121;   37.319
 266.48;   86.308;   -0.938;   35.974
 266.65;   86.242;   -0.660;   34.624
 266.81;   83.319;    2.024;   34.917
 266.98;   89.055;    2.398;   35.262
 267.15;   90.923;    1.729;   36.212
 267.32;   90.725;    0.521;   36.748
 267.48;   94.132;   -0.300;   35.726
 267.65;   94.022;   -0.060;   35.776
 267.82;   91.802;   -0.748;   36.640
 267.99;   93.011;   -1.345;   37.348
 268.15;   88.066;   -2.776;   37.421
 268.32;   87.121;   -2.374;   37.100
 268.49;   87.670;   -1.243;   36.098
 268.66;   87.165;   -0.717;   35.910
 268.82;   89.033;   -0.186;   35.869
 268.99;   90.198;   -0.431;   37.043
 269.16;   93.253;   -1.348;   36.298
 269.33;   95.033;   -1.212;   36.529
 269.49;   96.066;   -1.681;   36.031
 269.66;   97.582;   -2.279;   37.481
 269.83;   94.264;   -1.890;   37.917
 270.00;   90.989;   -2.612;   38.214
 270.16;   91.978;   -2.300;   37.507
 270.33;   91.824;   -2.450;   38.662
 270.50;   91.187;   -2.424;   38.079
 270.67;   90.725;   -1.469;   39.652
 270.83;   94.527;   -0.443;   39.260
 271.00;   95.868;   -1.069;   39.843
 271.17;  101.824;   -0.586;   39.745
 271.34;  102.198;   -0.221;   38.186
 271.50;   98.220;   -0.224;   36.536
 271.67;   98.242;   -0.098;   37.462
 271.84;   97.341;    0.367;   36.707
 272.01;   91.121;   -0.917;   36.186
 272.17;   94.044;    0.605;   36.107
 272.34;   91.121;    0.045;   35.919
 272.51;   89.429;    0.471;   37.336
 272.68;   88.923;    0.569;   38.976
 272.84;   89.297;    1.805;   38.021
 273.01;   90.901;    0.874;   37.500
 273.18;   92.066;    2.576;   37.031
 273.35;   89.538;    1.712;   37.357
 273.51;   90.527;    2.395;   37.783
 273.68;   87.692;    2.112;   38.690
 273.85;   89.429;    2.348;   38.593
 274.02;   87.736;    0.950;   38.805
 274.18;   84.374;    2.100;   40.783
 274.35;   84.703;    0.055;   42.024
 274.52;   84.154;   -0.776;   40.821
 274.69;   81.011;   -1.783;   42.176
 274.85;   82.220;   -1.871;   41.831
 275.02;   83.692;   -2.669;   41.881
 275.19;   83.758;   -1.805;   42.098
 275.35;   86.989;   -3.088;   41.424
 275.52;   88.198;   -2.452;   40.840
 275.69;   88.967;   -2.783;   41.100
 275.86;   89.385;   -1.776;   39.307
 276.02;   90.725;   -2.288;   39.148
 276.19;   90.615;   -1.986;   37.679
 276.36;   93.934;   -2.345;   38.481
 276.53;   96.374;   -0.395;   38.555
 276.69;   93.670;   -0.964;   38.186
 276.86;   93.560;    0.805;   37.555
 277.03;   92.396;    1.017;   37.462
 277.19;   89.516;    2.186;   37.231
 277.36;   89.231;    1.560;   37.976
 277.53;   86.220;    1.529;   36.898
 277.70;   86.286;   -0.660;   36.767
 277.86;   87.187;   -0.062;   36.631
 278.03;   89.890;   -1.631;   38.900
 278.20;   91.670;   -2.681;   38.383
 278.37;   93.143;   -3.793;   38.338
 278.53;   92.505;   -3.176;   38.021
 278.70;   91.516;   -3.450;   38.433
 278.87;   86.571;   -2.690;   36.345
 279.03;   84.440;   -3.888;   37.138
 279.20;   79.495;   -2.157;   35.907
 279.37;   78.813;   -1.993;   37.462
 279.54;   79.011;   -1.900;   38.488
 279.70;   79.385;   -1.355;   39.976
 279.87;   82.176;   -0.910;   39.650
 280.04;   84.615;   -0.840;   41.205
 280.20;   86.396;    0.033;   42.555
 280.37;   92.967;   -1.936;   43.129
 280.54;   94.308;   -0.586;   42.202
 280.71;   92.220;   -0.650;   40.671
 280.87;   91.626;   -0.767;   39.355
 281.04;   89.626;   -0.831;   39.310
 281.21;   91.187;   -0.214;   39.136
 281.37;   88.747;   -0.060;   38.471
 281.54;   82.000;    0.700;   37.345
 281.71;   82.989;   -0.507;   37.910
 281.88;   84.330;    0.824;   40.174
 282.04;   84.835;    1.598;   41.005
 282.21;   84.374;    1.414;   41.831
 282.38;   84.044;   -0.079;   42.814
 282.54;   84.901;    0.081;   41.964
 282.71;   84.352;    0.579;   44.262
 282.88;   82.615;    1.262;   43.460
 283.04;   85.011;   -0.269;   41.281
 283.21;   85.736;   -0.167;   40.764
 283.38;   84.879;    0.407;   41.510
 283.55;   85.648;    2.033;   42.136
 283.71;   90.549;    1.531;   43.367
 283.88;   93.165;    0.443;   42.136
 284.05;   91.912;   -0.412;   44.243
 284.21;   92.198;   -0.138;   44.879
 284.38;   90.901;   -1.402;   45.757
 284.55;   94.000;   -3.243;   45.298
 284.72;   93.099;   -4.136;   44.871
 284.88;  105.692;   -2.605;   46.212
 285.05;  106.330;   -2.193;   47.919
 285.22;  112.066;   -0.976;   48.174
 285.38;  113.231;   -1.974;   49.157
 285.55;  110.879;   -1.814;   49.640
 285.72;  112.044;   -1.040;   51.395
 285.88;  105.429;   -0.690;   52.269
 286.05;   86.813;   -1.040;   50.900
 286.22;   88.022;   -1.138;   49.374
 286.38;   83.253;   -0.917;   49.890
 286.55;   82.132;    1.195;   49.174
 286.72;   83.297;    1.883;   49.271
 286.89;   82.264;    2.443;   48.888
 287.05;   85.802;    1.674;   48.852
 287.22;   88.505;    2.167;   50.745
 287.39;   86.989;    2.979;   53.214
 287.55;   89.912;    3.700;   53.640
 287.72;   87.516;    3.150;   55.995
 287.89;   88.725;    3.167;   56.088
 288.05;   88.879;    2.969;   57.529
 288.22;   90.484;    3.500;   58.183
 288.39;   87.692;    2.160;   58.271
 288.55;   86.396;    1.367;   57.726
 288.72;   84.879;    0.055;   58.767
 288.89;   84.286;   -0.710;   57.631
 289.05;   84.000;   -1.631;   60.081
 289.22;   80.022;   -1.443;   60.612
 289.39;   79.077;   -1.412;   62.148
 289.56;   81.648;   -1.681;   62.298
 289.72;   77.934;   -0.631;   64.271
 289.89;   78.264;   -0.062;   64.774
 290.06;   81.714;    1.226;   68.586
 290.22;   82.308;    1.795;   69.545
 290.39;   83.956;    1.798;   70.652
 290.56;   82.176;    2.529;   71.488
 290.72;   82.154;    1.969;   73.624
 290.89;   85.912;    1.157;   75.755
 291.06;   87.077;   -0.240;   77.929
 291.22;   85.297;   -0.833;   79.898
 291.39;   84.088;    0.417;   82.471
 291.56;   85.516;    0.748;   85.574
 291.72;   89.319;    1.102;   89.824
 291.89;   87.846;    2.671;   94.279
 292.06;   89.802;    1.940;   97.538
 292.22;   86.703;    3.395;  100.612
 292.39;   88.835;    2.512;  104.500
 292.56;   89.121;    0.738;  107.345
 292.72;   85.890;    0.121;  109.319
 292.89;   82.747;   -1.138;  112.498
 293.06;   86.593;   -1.412;  115.443
 293.22;   85.077;   -0.062;  119.393
 293.39;   86.110;   -0.260;  124.671
 293.56;   87.451;    0.300;  126.517
 293.72;   87.604;    1.369;  131.976
 293.89;   85.604;    2.119;  137.212
 294.06;   89.582;    1.988;  142.119
 294.22;   89.824;    1.576;  147.383
 294.39;   91.516;   -0.240;  152.405
 294.56;   93.868;   -0.890;  156.221
 294.72;   90.462;    0.302;  162.643
 294.89;   91.363;    0.862;  167.202
 295.06;   94.725;    0.198;  174.471
 295.22;   92.374;    1.405;  178.869
 295.39;   87.736;    1.817;  185.643
 295.56;   84.110;    3.071;  191.745
 295.72;   80.396;    3.740;  199.043
 295.89;   83.143;    2.786;  205.479
 296.06;   82.593;    1.702;  212.510
 296.22;   79.934;    3.690;  220.688
 296.39;   79.429;    2.302;  229.957
 296.56;   84.374;    1.424;  238.621
 296.72;   86.198;   -0.326;  248.110
 296.89;   88.681;   -1.786;  257.679
 297.06;   83.253;   -1.974;  270.481
 297.22;   83.231;   -2.614;  281.955
 297.39;   83.648;   -3.355;  290.557
 297.56;   85.473;   -2.843;  300.964
 297.72;   83.516;   -2.307;  312.481
 297.89;   83.363;    0.224;  322.821
 298.06;   81.670;    0.940;  337.014
 298.22;   84.725;    1.624;  347.964
 298.39;   84.484;    1.655;  361.719
 298.56;   84.945;    0.567;  375.098
 298.72;   80.220;   -0.621;  390.214
 298.89;   80.593;   -0.290;  404.012
 299.05;   80.000;   -0.936;  421.595
 299.22;   77.429;   -0.138;  436.174
 299.39;   76.176;   -1.126;  454.748
 299.55;   75.363;    0.890;  471.536
 299.72;   77.187;    0.407;  493.710
 299.89;   78.527;    2.548;  512.945
 300.05;   75.253;    2.131;  533.310
 300.22;   76.505;    2.043;  552.774
 300.39;   79.473;    1.464;  575.633
 300.55;   82.000;    2.119;  596.840
 300.72;   83.912;    1.807;  620.757
 300.89;   87.890;    2.490;  642.993
 301.05;   86.945;    1.721;  668.910
 301.22;   88.857;    1.700;  694.126
 301.38;   87.429;    1.331;  721.929
 301.55;   86.044;    0.919;  747.374
 301.72;   84.659;    1.502;  777.757
 301.88;   82.835;    0.071;  805.793
 302.05;   81.890;   -0.145;  837.433
 302.22;   82.220;   -0.586;  866.545
 302.38;   83.253;   -1.145;  899.233
 302.55;   86.088;    0.081;  930.564
 302.72;   89.363;   -0.640;  966.224
 302.88;   92.330;   -1.814; 1000.755
 303.05;   93.758;   -2.079; 1038.633
 303.21;   92.901;   -1.986; 1073.450
 303.38;   96.352;   -2.421; 1116.367
 303.55;   94.308;   -1.129; 1154.431
 303.71;   89.846;   -2.621; 1197.443
 303.88;   91.934;   -2.462; 1237.288
 304.05;   87.692;   -2.793; 1280.433
 304.21;   84.198;   -1.890; 1319.831
 304.38;   82.857;   -2.326; 1368.605
 304.55;   80.593;   -1.929; 1408.745
 304.71;   80.879;   -2.555; 1458.786
 304.88;   87.099;   -1.119; 1506.821
 305.04;   81.407;   -0.183; 1563.548
 305.21;   79.626;   -0.176; 1614.898
 305.38;   82.681;   -0.669; 1674.957
 305.54;   79.363;   -1.157; 1723.383
 305.71;   80.220;   -1.021; 1789.519
 305.88;   81.824;    1.100; 1845.355
 306.04;   80.352;    0.998; 1907.624
 306.21;   82.264;    0.662; 1964.583
 306.37;   83.780;    1.036; 2025.443
 306.54;   85.209;    0.690; 2088.659
 306.71;   84.703;    1.169; 2158.709
 306.87;   87.407;    2.538; 2217.593
 307.04;   84.571;    0.474; 2294.081
 307.20;   82.527;    1.395; 2357.345
 307.37;   84.791;    1.655; 2430.081
 307.54;   84.593;    2.557; 2497.317
 307.70;   85.363;    3.483; 2570.738
 307.87;   91.758;    4.824; 2638.440
 308.04;   87.868;    3.074; 2717.072
 308.20;   88.066;    2.424; 2783.212
 308.37;   88.264;    0.950; 2867.719
 308.53;   85.824;    2.014; 2942.288
 308.70;   85.978;    1.683; 3029.357
 308.87;   79.802;    0.567; 3105.802
 309.03;   78.462;   -1.602; 3197.281
 309.20;   77.956;   -2.062; 3278.688
 309.36;   77.231;   -1.593; 3371.576
 309.53;   77.868;   -1.852; 3449.764
 309.70;   80.835;   -2.240; 3544.795
 309.86;   85.297;   -2.052; 3629.517
 310.03;   88.396;   -3.212; 3726.595
 310.20;   86.176;   -1.300; 3810.545
 310.36;   86.593;   -0.869; 3908.357
 310.53;   87.407;    0.490; 3987.621
 310.69;   86.769;    0.750; 4085.471
 310.86;   83.538;    0.633; 4178.688
 311.03;   78.418;   -0.260; 4290.252
 311.19;   77.473;    1.481; 4370.574
 311.36;   78.418;   -0.298; 4474.709
 311.52;   81.385;    0.557; 4558.498
 311.69;   82.198;   -0.812; 4667.967
 311.86;   83.802;   -0.757; 4769.098
 312.02;   84.176;   -1.155; 4873.986
 312.19;   88.681;   -1.290; 4953.755
 312.35;   92.967;   -2.698; 5075.833
 312.52;   93.868;   -0.643; 5168.440
 312.69;   93.011;   -1.231; 5282.033
 312.85;   95.231;    0.738; 5372.021
 313.02;   91.956;   -0.879; 5477.767
 313.18;   91.802;   -1.090; 5558.060
 313.35;   90.242;   -1.060; 5663.300
 313.52;   86.264;    0.967; 5733.650
 313.68;   83.121;    1.055; 5842.719
 313.85;   81.780;    1.110; 5916.240
 314.01;   81.626;   -0.679; 6012.291
 314.18;   80.462;    0.557; 6082.907
 314.35;   81.934;    0.645; 6187.252
 314.51;   79.890;    2.319; 6265.660
 314.68;   80.264;    3.283; 6366.776
 314.84;   80.945;    1.719; 6448.421
 315.01;   81.143;    2.245; 6559.786
 315.17;   78.440;    2.243; 6633.517
 315.34;   82.637;    2.960; 6744.671
 315.51;   80.505;    2.652; 6820.164
 315.67;   80.044;    1.807; 6915.805
 315.84;   80.901;    1.167; 6986.574
 316.00;   81.495;    1.064; 7070.300
 316.17;   83.451;    0.986; 7133.212
 316.34;   84.132;    0.826; 7230.395
 316.50;   84.154;    0.300; 7292.736
 316.67;   84.176;    1.645; 7370.176
 316.83;   84.813;    2.529; 7431.688
 317.00;   86.022;    1.950; 7508.300
 317.17;   83.714;    1.929; 7559.755
 317.33;   82.813;    1.769; 7633.262
 317.50;   83.802;    2.005; 7680.088
 317.66;   82.286;    2.607; 7739.071
 317.83;   84.374;    1.290; 7776.307
 317.99;   85.451;    0.112; 7843.500
 318.16;   79.363;    0.329; 7894.107
 318.33;   82.857;    1.064; 7945.424
 318.49;   84.857;    1.005; 7982.307
 318.66;   81.758;    0.874; 8030.891
 318.82;   83.363;    0.567; 8053.955
 318.99;   82.681;    0.960; 8118.024
 319.15;   83.978;    0.862; 8135.726
 319.32;   89.275;    0.607; 8179.843
 319.49;   88.637;    0.567; 8204.765
 319.65;   88.352;    0.140; 8247.396
 319.82;   93.385;    0.957; 8276.031
 319.98;   94.813;    1.331; 8325.300
 320.15;   96.593;    2.214; 8316.936
 320.31;   95.956;    2.540; 8360.376
 320.48;   99.099;    2.862; 8367.688
 320.65;   98.198;    2.674; 8406.091
 320.81;   97.297;    2.462; 8405.069
 320.98;   98.066;    1.779; 8435.967
 321.14;   95.055;    2.024; 8422.088
 321.31;   96.396;    0.436; 8448.947
 321.47;   97.473;    0.652; 8429.154
 321.64;   92.967;   -0.879; 8434.919
 321.81;   97.297;    0.043; 8421.498
 321.97;   94.637;   -0.031; 8432.891
 322.14;   93.429;    0.500; 8416.422
 322.30;   94.022;   -0.717; 8415.748
 322.47;   93.165;    0.957; 8385.517
 322.63;   92.440;    0.207; 8388.091
 322.80;   95.846;    0.252; 8364.869
 322.97;   89.275;   -0.317; 8350.472
 323.13;   90.000;    0.005; 8299.974
 323.30;   92.176;   -0.974; 8276.929
 323.46;   94.703;   -0.033; 8247.431
 323.63;   89.538;   -1.402; 8249.520
 323.79;   89.253;   -1.881; 8216.270
 323.96;   87.385;   -1.212; 8218.205
 324.12;   95.143;   -1.224; 8187.288
 324.29;   98.022;   -2.145; 8187.167
 324.46;   95.626;   -0.805; 8166.469
 324.62;   94.330;   -1.564; 8151.748
 324.79;   99.407;   -0.033; 8113.145
 324.95;  101.495;    0.369; 8097.452
 325.12;  106.703;    0.557; 8042.755
 325.28;  108.527;    0.169; 8010.014
 325.45;  111.055;    0.452; 7962.783
 325.61;  112.484;   -0.726; 7921.967
 325.78;  115.011;   -0.548; 7876.374
 325.95;  111.692;   -1.726; 7852.881
 326.11;  116.418;   -1.062; 7800.060
 326.28;  112.791;   -1.069; 7768.071
 326.44;  109.473;   -1.814; 7733.726
 326.61;  104.747;   -0.783; 7697.757
 326.77;  101.956;   -0.519; 7647.574
 326.94;  101.187;   -1.574; 7624.262
 327.10;  108.505;   -0.748; 7579.679
 327.27;  102.725;   -0.812; 7539.233
 327.43;  107.363;   -2.005; 7502.240
 327.60;  107.956;   -1.736; 7466.938
 327.77;  113.253;   -2.033; 7424.402
 327.93;  116.703;   -2.498; 7397.595
 328.10;  115.099;   -1.500; 7338.364
 328.26;  111.429;   -3.383; 7296.319
 328.43;  114.440;   -3.110; 7252.336
 328.59;  113.231;   -2.050; 7205.167
 328.76;  116.022;   -1.805; 7154.888
 328.92;  115.033;   -3.231; 7136.862
 329.09;  116.462;   -2.643; 7085.517
 329.25;  121.802;   -2.240; 7059.138
 329.42;  129.209;   -0.986; 7015.031
 329.58;  133.670;   -2.421; 7001.671
 329.75;  135.978;   -2.510; 6966.983
 329.92;  137.451;   -2.488; 6944.376
 330.08;  135.407;   -0.738; 6895.878
 330.25;  139.341;    0.074; 6880.224
 330.41;  138.220;    1.490; 6845.536
 330.58;  136.923;    0.950; 6811.071
 330.74;  133.297;    2.443; 6757.536
 330.91;  133.978;    2.540; 6730.481
 331.07;  132.593;    3.014; 6686.974
 331.24;  137.582;    2.512; 6647.967
 331.40;  138.527;    2.033; 6596.212
 331.57;  141.407;   -0.126; 6564.510
 331.73;  141.824;    0.138; 6523.393
 331.90;  147.209;   -0.117; 6490.195
 332.06;  151.495;    0.129; 6441.536
 332.23;  156.571;    0.769; 6410.109
 332.39;  158.527;    2.233; 6371.383
 332.56;  157.187;    1.302; 6341.119
 332.72;  160.198;    2.205; 6300.231
 332.89;  164.659;    1.931; 6276.395
 333.06;  167.187;    2.243; 6230.926
 333.22;  171.385;    2.017; 6203.167
 333.39;  174.396;    1.948; 6160.164
 333.55;  181.714;    0.198; 6138.757
 333.72;  190.659;    0.386; 6092.507
 333.88;  196.747;   -0.088; 6072.147
 334.05;  201.868;   -0.319; 6022.679
 334.21;  205.231;   -0.212; 6019.214
 334.38;  209.648;    0.348; 5992.060
 334.54;  216.088;   -0.079; 5973.681
 334.71;  219.582;    0.690; 5934.459
 334.87;  220.484;    0.179; 5928.233
 335.04;  221.209;    0.510; 5883.060
 335.20;  220.088;    1.274; 5871.262
 335.37;  223.626;    0.310; 5819.164
 335.53;  224.967;   -0.498; 5796.052
 335.70;  223.275;   -0.719; 5758.469
 335.86;  221.495;   -0.955; 5742.767
 336.03;  223.538;   -0.938; 5698.774
 336.19;  224.440;   -1.555; 5683.052
 336.36;  231.099;   -1.186; 5660.479
 336.52;  233.363;   -1.660; 5648.595
 336.69;  238.879;   -1.319; 5610.145
 336.85;  248.088;   -1.260; 5598.671
 337.02;  261.473;   -0.776; 5560.107
 337.18;  274.198;    1.150; 5547.043
 337.35;  286.659;    0.700; 5514.136
 337.51;  297.319;   -0.021; 5495.929
 337.68;  306.835;    0.986; 5471.517
 337.84;  315.341;    1.455; 5459.395
 338.01;  324.681;    0.767; 5429.650
 338.17;  329.319;    0.217; 5424.414
 338.34;  335.670;   -0.957; 5406.440
 338.50;  345.011;   -0.526; 5401.757
 338.67;  355.275;    0.224; 5381.364
 338.83;  371.824;    0.645; 5376.138
 339.00;  384.681;   -0.910; 5348.907
 339.16;  400.044;    0.207; 5342.814
 339.33;  416.418;    0.062; 5318.336
 339.49;  432.484;    0.550; 5302.319
 339.66;  442.967;    0.690; 5280.364
 339.82;  456.967;    1.007; 5260.748
 339.99;  466.308;    0.471; 5238.193
 340.15;  473.363;    1.093; 5235.709
 340.32;  474.659;    1.595; 5205.850
 340.48;  480.264;    2.312; 5212.062
 340.65;  485.516;    2.805; 5195.717
 340.81;  499.956;    2.988; 5195.005
 340.98;  501.824;    2.757; 5179.526
 341.14;  510.813;    1.302; 5171.872
 341.31;  525.560;    2.243; 5154.707
 341.47;  545.187;    1.407; 5151.548
 341.64;  561.560;    1.376; 5124.117
 341.80;  581.714;    0.026; 5122.471
 341.97;  591.451;   -0.157; 5097.831
 342.13;  612.176;   -1.364; 5091.576
 342.30;  626.879;   -0.319; 5067.897
 342.46;  641.758;   -1.345; 5063.729
 342.63;  651.934;   -1.443; 5048.307
 342.79;  655.473;   -1.021; 5041.900
 342.96;  650.527;   -0.481; 5023.593
 343.12;  648.308;   -0.221; 5019.052
 343.29;  638.264;   -0.176; 5016.288
 343.45;  632.308;    0.398; 5016.719
 343.62;  622.791;    2.052; 5008.517
 343.78;  622.418;    1.712; 5010.872
 343.95;  628.593;    0.748; 4995.164
 344.11;  653.538;    0.093; 4997.681
 344.28;  684.418;    1.062; 4983.345
 344.44;  718.154;    0.931; 4974.662
 344.61;  744.593;    0.252; 4961.897
 344.77;  771.473;   -0.126; 4958.214
 344.93;  794.132;    0.433; 4947.202
 345.10;  816.044;    0.302; 4950.271
 345.26;  824.066;    1.329; 4937.517
 345.43;  830.242;   -1.250; 4943.786
 345.59;  840.418;   -0.062; 4935.231
 345.76;  861.319;   -0.469; 4929.738
 345.92;  881.912;   -0.329; 4913.031
 346.09;  901.890;   -1.307; 4917.100
 346.25;  922.527;   -1.129; 4907.136
 346.42;  939.253;   -1.764; 4898.262
 346.58;  959.275;   -0.214; 4901.117
 346.75;  969.846;   -1.926; 4905.872
 346.91;  973.209;   -1.986; 4913.145
 347.08;  982.286;   -2.879; 4923.252
 347.24;  989.473;   -0.729; 4907.536
 347.41; 1000.352;   -0.507; 4914.919
 347.57; 1017.516;   -0.586; 4917.526
 347.74; 1030.989;    0.083; 4911.500
 347.90; 1044.857;    0.995; 4898.060
 348.06; 1062.813;    1.674; 4889.452
 348.23; 1074.440;    1.319; 4886.393
 348.39; 1087.824;   -0.202; 4893.843
 348.56; 1099.846;    0.690; 4882.136
 348.72; 1113.187;    0.550; 4887.186
 348.89; 1138.615;    0.414; 4879.736
 349.05; 1175.868;   -0.612; 4884.891
 349.22; 1212.198;   -0.262; 4879.936
 349.38; 1271.429;    0.712; 4883.071
 349.55; 1322.571;    0.881; 4872.336
 349.71; 1373.846;   -0.545; 4885.291
 349.88; 1419.451;   -1.310; 4878.069
 350.04; 1446.681;   -3.193; 4884.776
 350.20; 1461.473;   -1.786; 4883.440
 350.37; 1473.582;   -0.669; 4893.748
 350.53; 1467.626;   -0.862; 4890.479
 350.70; 1466.637;   -1.164; 4900.510
 350.86; 1462.615;    0.024; 4892.041
 351.03; 1462.374;    1.826; 4901.281
 351.19; 1459.978;    3.576; 4890.240
 351.36; 1466.462;    2.950; 4909.671
 351.52; 1468.945;    0.586; 4906.679
 351.68; 1468.440;   -0.479; 4917.891
 351.85; 1472.813;   -0.614; 4917.498
 352.01; 1486.198;   -1.488; 4931.043
 352.18; 1512.637;   -2.529; 4936.764
 352.34; 1546.462;   -3.031; 4952.414
 352.51; 1593.341;   -2.414; 4944.669
 352.67; 1650.549;   -0.993; 4955.872
 352.84; 1708.374;   -0.881; 4948.002
 353.00; 1774.901;   -0.764; 4973.090
 353.17; 1831.890;   -0.148; 4975.507
 353.33; 1876.615;    0.369; 4983.481
 353.49; 1920.857;    0.900; 4986.421
 353.66; 1958.945;    1.350; 5002.995
 353.82; 1989.209;    0.348; 5008.764
 353.99; 2014.637;    0.512; 5026.291
 354.15; 2029.429;    1.748; 5030.164
 354.32; 2041.846;    0.026; 5044.186
 354.48; 2053.385;   -0.624; 5054.298
 354.64; 2065.494;   -1.460; 5083.043
 354.81; 2061.472;   -2.224; 5088.050
 354.97; 2055.956;   -1.174; 5106.776
 355.14; 2056.022;   -0.338; 5123.117
 355.30; 2046.945;   -1.583; 5134.214
 355.47; 2031.802;   -0.662; 5148.012
 355.63; 2006.769;   -1.460; 5164.128
 355.80; 1965.604;   -1.157; 5159.926
 355.96; 1926.374;   -1.250; 5181.586
 356.12; 1890.044;   -1.919; 5205.536
 356.29; 1848.747;   -2.574; 5224.052
 356.45; 1822.879;   -0.776; 5232.993
 356.62; 1807.033;   -0.955; 5253.090
 356.78; 1796.901;    1.071; 5271.783
 356.95; 1801.407;    1.360; 5304.109
 357.11; 1797.604;    2.110; 5314.088
 357.27; 1787.912;    2.160; 5329.805
 357.44; 1766.044;    2.995; 5349.764
 357.60; 1737.319;    0.788; 5383.529
 357.77; 1714.352;    1.195; 5402.117
 357.93; 1715.121;    0.645; 5421.186
 358.10; 1743.802;    0.300; 5442.536
 358.26; 1811.033;    0.226; 5482.662
 358.42; 1909.473;   -0.033; 5503.736
 358.59; 2046.549;   -1.326; 5536.081
 358.75; 2202.264;    0.824; 5549.669
 358.92; 2355.912;    0.531; 5581.833
 359.08; 2482.747;    0.614; 5600.031
 359.25; 2577.143;    1.864; 5628.100
 359.41; 2630.264;    0.871; 5638.536
 359.57; 2649.802;    1.217; 5679.995
 359.74; 2618.528;    1.681; 5684.774
 359.90; 2571.385;    0.188; 5723.957
 360.07; 2514.747;    0.748; 5743.641
 360.23; 2469.714;    0.350; 5785.805
 360.39; 2421.736;   -0.929; 5802.079
 360.56; 2394.374;    0.540; 5834.338
 360.72; 2375.934;    0.862; 5841.136
 360.89; 2395.253;    1.045; 5883.776
 361.05; 2415.406;    2.348; 5904.431
 361.21; 2458.110;    2.388; 5942.824
 361.38; 2507.231;    3.005; 5957.831
 361.54; 2580.000;    3.245; 5995.614
 361.71; 2653.472;    3.519; 6018.955
 361.87; 2740.659;    1.769; 6068.586
 362.04; 2808.110;    3.110; 6087.593
 362.20; 2862.506;    1.845; 6114.024
 362.36; 2903.363;    2.138; 6146.536
 362.53; 2920.528;    1.674; 6177.881
 362.69; 2932.857;    2.605; 6210.136
 362.86; 2954.417;    0.893; 6256.262
 363.02; 2966.308;    2.976; 6265.755
 363.18; 3000.088;    0.817; 6304.100
 363.35; 3035.231;    0.586; 6330.736
 363.51; 3062.813;   -0.640; 6357.814
 363.68; 3091.187;   -0.748; 6394.355
 363.84; 3111.165;   -2.631; 6430.090
 364.00; 3117.824;   -1.148; 6456.812
 364.17; 3141.978;   -1.612; 6507.357
 364.33; 3169.868;   -0.357; 6545.974
 364.50; 3226.813;   -1.079; 6592.776
 364.66; 3319.055;    0.014; 6624.079
 364.82; 3442.945;   -0.860; 6672.291
 364.99; 3568.769;    0.643; 6701.317
 365.15; 3702.242;    0.188; 6739.652
 365.32; 3808.110;    1.338; 6766.212
 365.48; 3901.758;    0.350; 6816.319
 365.64; 3962.615;    1.938; 6860.164
 365.81; 3992.923;    1.721; 6911.671
 365.97; 3996.857;    2.890; 6953.555
 366.14; 4000.308;    3.055; 6999.109
 366.30; 3989.736;    3.100; 7039.993
 366.46; 3996.220;    0.921; 7107.214
 366.63; 3977.428;    1.176; 7143.136
 366.79; 3971.648;    0.026; 7186.995
 366.96; 3952.813;   -0.110; 7219.393
 367.12; 3938.110;    0.150; 7260.224
 367.28; 3892.769;   -1.090; 7278.660
 367.45; 3860.132;   -2.545; 7321.424
 367.61; 3811.363;   -2.395; 7320.983
 367.77; 3805.275;   -2.279; 7335.424
 367.94; 3802.703;   -2.138; 7345.421
 368.10; 3823.297;   -1.802; 7379.424
 368.27; 3853.297;   -3.071; 7384.650
 368.43; 3943.253;   -3.231; 7453.462
 368.59; 4032.461;   -1.767; 7464.955
 368.76; 4143.429;   -0.393; 7499.243
 368.92; 4236.857;    0.167; 7540.098
 369.09; 4309.626;    0.645; 7576.043
 369.25; 4352.286;   -0.224; 7584.193
 369.41; 4363.517;   -0.164; 7613.090
 369.58; 4324.945;    0.671; 7604.326
 369.74; 4269.846;    0.531; 7627.071
 369.90; 4195.231;    0.995; 7633.850
 370.07; 4137.758;    0.255; 7650.872
 370.23; 4115.451;    0.624; 7671.021
 370.40; 4138.549;    0.112; 7706.167
 370.56; 4181.209;    1.367; 7737.183
 370.72; 4221.011;    0.226; 7763.500
 370.89; 4250.176;    0.500; 7798.012
 371.05; 4267.956;   -0.221; 7855.595
 371.21; 4243.583;    0.405; 7873.574
 371.38; 4188.615;    0.102; 7926.100
 371.54; 4092.286;    1.414; 7950.488
 371.71; 4013.231;    1.474; 7988.462
 371.87; 3960.989;    2.329; 8013.726
 372.03; 3927.077;    2.521; 8040.043
 372.20; 3870.396;    2.329; 8054.945
 372.36; 3809.626;    2.293; 8123.424
 372.52; 3731.055;    2.443; 8123.345
 372.69; 3681.802;    2.179; 8173.652
 372.85; 3615.802;    1.633; 8211.098
 373.01; 3534.242;    0.645; 8254.023
 373.18; 3472.461;    0.043; 8300.897
 373.34; 3450.506;    0.598; 8353.662
 373.51; 3442.352;    0.605; 8356.460
 373.67; 3465.714;    0.017; 8442.520
 373.83; 3450.923;    1.471; 8462.993
 374.00; 3457.934;   -0.164; 8509.357
 374.16; 3491.275;    0.500; 8563.192
 374.32; 3548.176;    1.255; 8637.871
 374.49; 3605.692;   -0.376; 8698.555
 374.65; 3695.253;   -1.231; 8763.586
 374.81; 3804.813;   -0.967; 8798.793
 374.98; 3939.648;   -3.860; 8864.205
 375.14; 4036.901;   -3.119; 8879.412
 375.30; 4104.747;   -3.488; 8931.005
 375.47; 4115.143;   -4.167; 8913.107
 375.63; 4136.835;   -3.669; 8938.995
 375.80; 4146.659;   -3.586; 8956.727
 375.96; 4159.429;   -3.450; 8980.985
 376.12; 4176.505;   -2.262; 8993.060
 376.29; 4250.154;   -0.079; 9070.138
 376.45; 4338.483;    0.186; 9077.230
 376.61; 4475.824;    0.464; 9134.396
 376.78; 4621.780;    2.290; 9153.803
 376.94; 4787.648;    3.417; 9218.881
 377.10; 4923.714;    3.729; 9244.727
 377.27; 5073.670;    2.312; 9306.909
 377.43; 5156.330;    1.110; 9322.697
 377.59; 5228.352;    1.864; 9399.281
 377.76; 5237.165;    1.252; 9451.869
 377.92; 5200.396;   -0.060; 9539.662
 378.08; 5080.022;   -0.176; 9558.250
 378.25; 4936.264;   -0.507; 9627.985
 378.41; 4758.000;    0.595; 9696.412
 378.57; 4591.824;   -0.155; 9761.700
 378.74; 4437.077;   -1.405; 9795.841
 378.90; 4325.055;   -0.526; 9849.528
 379.06; 4238.483;   -0.510; 9851.850
 379.23; 4238.110;   -1.621; 9880.366
 379.39; 4278.659;   -2.062; 9856.126
 379.55; 4364.132;   -1.802; 9821.824
 379.72; 4487.626;   -0.938; 9779.192
 379.88; 4627.517;    0.017; 9767.348
 380.05; 4725.868;   -0.824; 9713.507
 380.21; 4802.549;   -0.298; 9695.510
 380.37; 4821.912;    1.452; 9662.012
 380.54; 4827.473;    1.798; 9684.376
 380.70; 4741.561;    1.690; 9636.078
 380.86; 4608.439;    0.388; 9623.176
 381.03; 4421.868;    0.167; 9560.564
 381.19; 4241.231;    0.407; 9544.100
 381.35; 4051.802;    0.176; 9492.498
 381.52; 3875.165;   -0.602; 9497.005
 381.68; 3675.583;   -0.757; 9451.488
 381.84; 3524.747;   -1.088; 9470.129
 382.00; 3387.450;   -0.224; 9479.364
 382.17; 3271.209;   -0.850; 9520.604
 382.33; 3174.835;   -0.767; 9519.126
 382.49; 3105.714;   -1.612; 9526.700
 382.66; 3044.461;   -1.424; 9482.422
 382.82; 3007.517;   -0.469; 9460.786
 382.98; 3029.692;    1.110; 9452.002
 383.15; 3098.374;    1.588; 9408.271
 383.31; 3204.550;    2.852; 9346.593
 383.47; 3367.165;    2.893; 9333.224
 383.64; 3552.857;    3.329; 9299.869
 383.80; 3788.483;    2.779; 9323.357
 383.96; 4030.439;    2.519; 9296.460
 384.13; 4232.659;    1.064; 9245.862
 384.29; 4399.055;    1.071; 9231.945
 384.45; 4513.802;    1.150; 9213.757
 384.62; 4547.319;   -0.243; 9154.583
 384.78; 4554.417;   -1.202; 9147.414
 384.94; 4506.571;   -1.376; 9062.717
 385.11; 4456.176;   -1.479; 9012.957
 385.27; 4426.703;   -1.529; 8978.384
 385.43; 4410.505;   -2.440; 8929.520
 385.60; 4421.121;   -2.776; 8883.498
 385.76; 4459.209;   -1.869; 8827.100
 385.92; 4516.374;   -0.119; 8780.136
 386.08; 4582.066;   -0.764; 8774.366
 386.25; 4631.978;   -0.367; 8759.926
 386.41; 4665.758;   -0.679; 8764.138
 386.57; 4667.407;   -0.205; 8750.964
 386.74; 4679.912;   -0.079; 8744.138
 386.90; 4697.297;    0.967; 8760.384
 387.06; 4714.989;    0.779; 8752.300
 387.23; 4716.022;    2.652; 8732.012
 387.39; 4705.143;    1.407; 8732.043
 387.55; 4694.791;    3.090; 8725.270
 387.72; 4688.264;    2.731; 8677.472
 387.88; 4717.692;    1.595; 8666.384
 388.04; 4766.989;   -0.583; 8635.938
 388.20; 4822.220;   -1.852; 8589.707
 388.37; 4935.604;   -3.431; 8534.186
 388.53; 5102.703;   -3.386; 8436.240
 388.69; 5299.429;   -3.840; 8314.138
 388.86; 5518.000;   -2.929; 8222.402
 389.02; 5688.044;   -1.945; 8095.433
 389.18; 5823.758;   -0.224; 7961.840
 389.35; 5937.758;    0.169; 7837.643
 389.51; 6014.527;    0.757; 7738.440
 389.67; 6085.846;    1.350; 7675.138
 389.83; 6131.011;    0.176; 7611.107
 390.00; 6205.539;    0.150; 7571.414
 390.16; 6280.769;   -0.252; 7510.393
 390.32; 6415.385;   -0.955; 7493.529
 390.49; 6530.879;   -1.090; 7432.622
 390.65; 6648.220;   -1.707; 7386.910
 390.81; 6704.461;   -0.767; 7319.440
 390.97; 6723.604;    0.140; 7272.014
 391.14; 6676.593;   -0.195; 7227.945
 391.30; 6582.857;   -1.326; 7202.176
 391.46; 6385.165;   -0.871; 7160.622
 391.63; 6156.396;   -1.002; 7194.348
 391.79; 5846.923;    0.119; 7205.183
 391.95; 5487.824;   -1.240; 7228.605
 392.11; 5061.385;   -0.862; 7214.897
 392.28; 4609.670;   -0.155; 7194.519
 392.44; 4163.319;    0.519; 7150.155
 392.60; 3785.626;   -0.755; 7094.414
 392.77; 3484.681;   -0.529; 6957.641
 392.93; 3305.890;   -0.745; 6788.176
 393.09; 3275.802;   -0.376; 6587.974
 393.25; 3418.594;   -1.317; 6388.081
 393.42; 3687.539;   -1.557; 6182.098
 393.58; 4084.923;   -1.679; 6019.367
 393.74; 4498.791;   -0.281; 5827.383
 393.91; 4938.725;    0.683; 5681.709
 394.07; 5361.209;    0.195; 5557.498
 394.23; 5806.945;    0.502; 5507.548
 394.39; 6158.352;    1.462; 5448.279
 394.56; 6438.989;    1.398; 5378.500
 394.72; 6600.725;    2.052; 5272.936
 394.88; 6704.527;    0.950; 5203.995
 395.05; 6707.495;    1.833; 5128.793
 395.21; 6610.066;    2.226; 5058.291
 395.37; 6363.846;    2.881; 4955.459
 395.53; 6042.593;    3.340; 4880.529
 395.70; 5634.132;    2.262; 4816.564
 395.86; 5214.681;    1.379; 4765.005
 396.02; 4816.549;    3.148; 4708.136
 396.18; 4501.011;    0.198; 4665.157
 396.35; 4321.473;    0.376; 4632.717
 396.51; 4279.473;   -0.260; 4584.643
 396.67; 4453.429;   -2.014; 4545.336
 396.83; 4817.143;   -1.831; 4509.776
 397.00; 5260.330;   -0.567; 4459.183
 397.16; 5832.352;   -1.517; 4454.090
 397.32; 6384.945;    0.329; 4418.631
 397.49; 6944.439;    0.055; 4397.014
 397.65; 7474.835;    0.167; 4385.107
 397.81; 7892.703;    1.617; 4346.291
 397.97; 8229.121;    2.043; 4305.783
 398.14; 8562.110;    1.769; 4284.862
 398.30; 8751.011;    2.148; 4194.155
 398.46; 8986.638;    1.626; 4124.462
 398.62; 9132.022;    1.043; 4013.117
 398.79; 9265.802;    0.569; 3897.881
 398.95; 9372.198;    0.700; 3788.012
 399.11; 9457.802;    0.969; 3670.348
 399.27; 9510.659;    2.281; 3554.098
 399.44; 9610.726;    0.798; 3465.072
 399.60; 9657.253;    1.052; 3363.098
 399.76; 9700.879;    1.312; 3278.671
 399.92; 9731.099;    1.871; 3192.717
 400.09; 9806.286;    0.493; 3122.510
 400.25; 9868.682;   -0.548; 3051.536
 400.41; 9974.638;   -2.679; 2986.176
 400.57;10051.626;   -2.110; 2912.764
 400.74;10134.506;   -2.755; 2841.510
 400.90;10245.077;   -3.205; 2775.250
 401.06;10384.835;   -4.088; 2714.671
 401.22;10486.703;   -4.605; 2641.183
 401.39;10599.077;   -2.736; 2576.529
 401.55;10641.209;   -2.062; 2500.774
 401.71;10670.638;   -1.774; 2432.348
 401.87;10684.770;   -0.729; 2373.412
 402.04;10670.242;    0.017; 2319.062
 402.20;10582.527;    0.662; 2255.183
 402.36;10507.033;    0.017; 2198.519
 402.52;10437.033;   -0.271; 2144.383
 402.69;10432.132;   -0.260; 2108.967
 402.85;10421.824;    0.576; 2065.793
 403.01;10448.615;   -0.107; 2019.233
 403.17;10518.967;    0.357; 1978.393
 403.34;10542.770;   -0.240; 1936.500
 403.50;10546.571;    1.433; 1897.155
 403.66;10539.209;    0.607; 1860.319
 403.82;10467.582;    0.948; 1807.793
 403.98;10462.022;   -0.402; 1776.395
 404.15;10405.209;   -0.862; 1743.041
 404.31;10337.450;   -1.774; 1708.167
 404.47;10392.770;   -1.424; 1680.431
 404.63;10449.626;   -1.517; 1651.757
 404.80;10460.770;   -1.138; 1615.926
 404.96;10530.198;   -0.917; 1594.643
 405.12;10464.857;   -0.148; 1553.679
 405.28;10434.462;   -0.145; 1515.319
 405.45;10382.176;    1.348; 1468.212
 405.61;10310.462;    0.740; 1421.214
 405.77;10242.967;    1.748; 1368.279
 405.93;10209.274;    1.902; 1324.176
 406.09;10202.571;    1.795; 1273.812
 406.26;10247.604;    1.512; 1227.824
 406.42;10276.770;    1.995; 1181.079
 406.58;10352.879;    1.321; 1147.195
 406.74;10349.736;    2.271; 1108.202
 406.91;10368.439;    2.045; 1076.243
 407.07;10483.055;    2.195; 1049.345
 407.23;10541.099;    1.436; 1020.929
 407.39;10668.857;    3.119; 1002.898
 407.55;10778.286;    4.093;  982.843
 407.72;10891.450;    4.157;  960.726
 407.88;11068.879;    3.626;  945.433
 408.04;11268.726;    3.262;  932.326
 408.20;11383.824;    2.769;  915.310
 408.37;11499.582;    2.843;  898.679
 408.53;11537.934;    0.836;  876.033
 408.69;11484.198;    0.805;  855.374
 408.85;11366.813;   -0.050;  835.443
 409.01;11173.604;    0.148;  814.450
 409.18;10931.429;   -1.460;  792.186
 409.34;10673.429;   -1.357;  767.488
 409.50;10409.890;   -1.221;  744.167
 409.66;10259.758;    0.205;  725.088
 409.82;10242.550;   -0.793;  707.852
 409.99;10307.450;   -0.414;  687.298
 410.15;10519.473;    0.160;  668.519
 410.31;10716.418;    2.014;  644.831
 410.47;11019.824;    0.740;  628.129
 410.63;11333.604;    2.043;  610.783
 410.80;11585.758;    0.464;  594.595
 410.96;11784.989;    0.433;  577.193
 411.12;11998.594;   -0.821;  563.786
 411.28;12071.538;   -1.100;  548.488
 411.45;12188.703;   -0.507;  539.290
 411.61;12209.692;    0.633;  526.202
 411.77;12222.374;   -0.964;  517.329
 411.93;12210.527;    0.462;  507.460
 412.09;12238.638;    0.636;  501.595
 412.26;12168.682;    2.262;  492.736
 412.42;12120.703;    1.388;  484.205
 412.58;12101.297;    0.510;  476.450
 412.74;12135.780;    0.750;  469.414
 412.90;12153.736;    1.348;  459.955
 413.06;12205.494;    0.017;  451.538
 413.23;12232.242;   -0.186;  439.402
 413.39;12274.813;   -0.269;  427.595
 413.55;12333.165;   -0.233;  416.840
 413.71;12334.682;    0.760;  404.443
 413.87;12269.121;   -0.138;  391.288
 414.04;12171.297;    0.112;  376.738
 414.20;12139.934;    1.271;  363.888
 414.36;12078.901;    1.236;  354.995
 414.52;12104.901;    1.738;  346.888
 414.68;12093.802;    1.836;  337.529
 414.85;12040.901;    1.024;  327.517
 415.01;12101.055;    1.017;  319.700
 415.17;12210.308;    1.624;  313.793
 415.33;12261.626;    0.350;  305.395
 415.49;12341.121;    0.957;  295.117
 415.66;12367.604;   -0.460;  285.671
 415.82;12400.418;   -0.062;  278.517
 415.98;12483.297;   -0.869;  273.071
 416.14;12475.714;   -1.024;  267.688
 416.30;12348.571;   -2.240;  259.995
 416.46;12179.362;   -2.167;  254.107
 416.63;12049.934;   -3.145;  250.062
 416.79;11869.692;   -2.157;  244.574
 416.95;11725.494;   -1.755;  239.824
 417.11;11634.000;   -1.462;  233.955
 417.27;11574.989;   -0.526;  228.100
 417.44;11563.846;    0.900;  224.898
 417.60;11547.033;    1.502;  220.786
 417.76;11518.615;    2.795;  215.621
 417.92;11554.462;    1.283;  211.710
 418.08;11616.594;    1.529;  206.402
 418.24;11616.527;    0.864;  203.833
 418.41;11604.638;    0.995;  200.012
 418.57;11644.044;   -0.802;  195.852
 418.73;11657.341;   -0.862;  192.088
 418.89;11668.176;   -2.412;  189.300
 419.05;11583.318;   -0.138;  185.164
 419.21;11500.923;   -1.926;  183.452
 419.38;11452.462;   -0.757;  179.498
 419.54;11474.198;   -1.640;  177.871
 419.70;11495.758;   -1.367;  175.231
 419.86;11657.758;   -1.517;  173.719
 420.02;11787.978;   -1.224;  172.564
 420.18;12030.330;   -2.517;  172.890
 420.35;12201.956;   -2.100;  171.136
 420.51;12355.868;   -2.707;  171.214
 420.67;12389.033;   -2.176;  168.602
 420.83;12496.352;   -2.212;  168.681
 420.99;12481.956;   -1.662;  166.555
 421.15;12439.561;   -0.193;  164.757
 421.32;12245.648;   -0.310;  161.736
 421.48;12109.846;   -0.212;  159.405
 421.64;11935.890;    0.414;  156.421
 421.80;11756.747;    0.560;  153.576
 421.96;11550.967;   -1.043;  150.183
 422.12;11425.011;   -1.040;  148.214
 422.28;11325.561;   -1.567;  144.507
 422.45;11367.121;   -2.164;  142.224
 422.61;11451.450;   -1.157;  139.660
 422.77;11566.989;   -0.850;  135.957
 422.93;11676.857;   -0.262;  132.660
 423.09;11761.230;    1.493;  128.719
 423.25;11904.418;    1.748;  125.688
 423.42;12094.286;    1.998;  124.005
 423.58;12173.956;    3.243;  120.888
 423.74;12196.835;    2.198;  119.290
 423.90;12216.286;    1.814;  119.126
 424.06;12312.791;    1.198;  118.843
 424.22;12330.220;    3.110;  117.364
 424.38;12257.143;    3.188;  116.776
 424.55;12169.429;    2.500;  114.298
 424.71;12125.055;    2.683;  114.624
 424.87;12120.550;    3.052;  111.621
 425.03;12157.362;    2.455;  109.500
 425.19;12153.956;    3.110;  108.060
 425.35;12250.462;    1.026;  107.643
 425.51;12357.341;    0.433;  103.917
 425.68;12389.494;    0.912;  103.157
 425.84;12437.736;   -0.338;   99.307
 426.00;12425.758;   -0.888;   99.138
 426.16;12361.912;   -0.443;   97.831
 426.32;12280.791;   -2.336;   95.948
 426.48;12133.824;   -0.986;   95.317
 426.64;11957.055;   -1.412;   93.795
 426.81;11898.439;   -1.700;   91.974
 426.97;11965.978;   -1.307;   92.243
 427.13;11985.561;   -0.995;   91.688
 427.29;12021.450;   -1.793;   91.310
 427.45;12099.714;   -0.567;   91.212
 427.61;12163.780;   -1.450;   91.052
 427.77;12203.055;   -0.967;   92.974
 427.93;12247.912;   -0.393;   93.871
 428.10;12147.978;   -1.662;   92.907
 428.26;12115.604;   -1.574;   93.405
 428.42;12060.462;   -0.490;   94.860
 428.58;11937.362;    0.169;   95.767
 428.74;11771.626;   -0.900;   94.812
 428.90;11570.594;   -2.402;   94.424
 429.06;11270.483;   -3.052;   95.012
 429.22;11004.439;   -1.355;   97.376
 429.39;10602.483;   -0.624;   98.069
 429.55;10179.165;    0.007;   98.186
 429.71; 9827.758;   -0.738;   97.260
 429.87; 9579.736;   -0.602;   98.214
 430.03; 9462.088;    0.300;   96.355
 430.19; 9477.934;    0.007;   96.110
 430.35; 9586.132;    0.024;   92.698
 430.51; 9967.692;   -0.755;   91.090
 430.68;10615.802;   -1.995;   87.993
 430.84;11269.582;   -1.393;   85.681
 431.00;12044.242;   -0.110;   83.402
 431.16;12706.330;    1.493;   84.005
 431.32;13114.352;    2.243;   81.793
 431.48;13522.550;    2.464;   81.890
 431.64;13772.462;    3.471;   79.507
 431.80;13729.714;    3.474;   78.814
 431.96;13754.308;    2.738;   79.393
 432.13;13717.670;    2.883;   79.871
 432.29;13744.066;    1.805;   79.783
 432.45;13904.483;    1.883;   80.510
 432.61;13902.879;    1.986;   81.088
 432.77;13930.110;    1.655;   83.595
 432.93;13878.308;    2.833;   84.079
 433.09;13701.055;    3.455;   83.395
 433.25;13418.264;    3.110;   82.212
 433.41;13192.176;    2.893;   82.157
 433.58;13127.318;    3.995;   81.088
 433.74;13098.550;    3.960;   80.433
 433.90;13090.659;    3.614;   78.002
 434.06;13278.594;    2.817;   76.767
 434.22;13531.230;    1.338;   76.336
 434.38;13847.912;   -0.660;   77.014
 434.54;14058.571;   -1.024;   75.736
 434.70;14186.066;   -2.936;   75.471
 434.86;14418.352;   -4.624;   75.593
 435.02;14723.956;   -5.298;   77.405
 435.19;14924.638;   -5.243;   77.298
 435.35;15147.209;   -4.126;   77.871
 435.51;15404.198;   -2.071;   77.726
 435.67;15725.318;   -1.364;   78.652
 435.83;15848.066;   -1.081;   78.717
 435.99;15900.659;   -0.726;   78.967
 436.15;15737.868;    1.405;   77.393
 436.31;15757.890;    0.379;   77.110
 436.47;15695.802;    0.786;   76.774
 436.63;15654.945;    0.169;   76.148
 436.79;15446.396;   -1.652;   75.517
 436.96;15373.187;   -2.260;   75.757
 437.12;15237.912;   -2.033;   74.155
 437.28;15157.538;   -2.764;   73.319
 437.44;14936.550;   -1.310;   74.269
 437.60;14720.439;   -2.745;   73.986
 437.76;14344.857;   -1.948;   73.507
 437.92;14188.264;   -0.164;   74.395
 438.08;14024.550;    0.033;   73.688
 438.24;14099.692;    0.121;   74.890
 438.40;14200.594;   -0.976;   74.764
 438.56;14334.594;   -2.231;   73.624
 438.73;14603.758;   -1.233;   73.831
 438.89;14926.110;   -1.488;   74.729
 439.05;15070.000;   -0.833;   72.345
 439.21;15303.033;   -1.726;   73.252
 439.37;15350.000;   -1.071;   72.393
 439.53;15399.429;   -0.764;   75.205
 439.69;15475.626;   -1.005;   76.640
 439.85;15553.011;   -0.688;   76.319
 440.01;15609.692;   -1.395;   75.440
 440.17;15842.286;   -1.964;   77.490
 440.33;16004.110;   -1.681;   76.412
 440.49;16169.362;   -1.536;   78.643
 440.65;16363.934;    0.262;   77.907
 440.82;16747.297;    1.693;   78.624
 440.98;16795.318;    0.452;   79.698
 441.14;16946.109;    0.807;   80.319
 441.30;17033.297;    0.605;   79.469
 441.46;17061.494;    1.683;   80.833
 441.62;17173.912;    1.938;   79.564
 441.78;17297.494;   -0.774;   79.929
 441.94;17215.100;   -1.233;   79.250
 442.10;17251.604;   -0.993;   78.224
 442.26;17188.066;   -0.890;   79.107
 442.42;17133.188;   -1.307;   79.671
 442.58;17163.230;   -1.376;   79.260
 442.74;17103.385;   -2.755;   79.310
 442.90;16981.912;   -2.119;   79.564
 443.06;16867.297;   -2.736;   80.014
 443.22;16926.133;   -1.614;   80.221
 443.39;17102.109;   -2.126;   80.157
 443.55;17228.945;   -2.329;   81.688
 443.71;17204.000;   -2.917;   82.624
 443.87;17219.539;   -2.071;   83.479
 444.03;17323.736;   -1.860;   83.310
 444.19;17360.637;   -1.224;   83.183
 444.35;17246.594;   -2.145;   84.129
 444.51;17110.439;   -1.643;   83.726
 444.67;16953.627;   -1.202;   83.119
 444.83;16908.506;    0.033;   83.402
 444.99;16729.758;    0.083;   82.852
 445.15;16578.879;   -0.062;   82.107
 445.31;16496.439;   -0.574;   81.710
 445.47;16512.066;   -0.252;   82.002
 445.63;16442.637;   -0.926;   81.824
 445.79;16539.539;   -0.224;   82.631
 445.95;16666.021;   -0.202;   80.910
 446.11;16909.385;    0.214;   80.593
 446.28;17103.164;   -0.574;   79.957
 446.44;17283.934;   -0.262;   79.421
 446.60;17584.703;   -0.183;   79.376
 446.76;17752.154;    0.433;   78.650
 446.92;17775.076;   -0.821;   77.376
 447.08;17827.494;   -2.110;   79.040
 447.24;17860.836;   -2.660;   79.795
 447.40;17945.648;   -1.062;   81.231
 447.56;17856.924;   -1.040;   82.005
 447.72;17641.076;   -1.348;   80.755
 447.88;17724.484;   -1.926;   82.633
 448.04;17838.439;   -0.519;   84.069
 448.20;17861.891;    0.874;   83.890
 448.36;17902.660;    1.938;   83.421
 448.52;17781.188;    2.255;   83.929
 448.68;17857.385;    3.119;   84.069
 448.84;18009.846;    3.226;   86.329
 449.00;18135.318;    3.605;   85.469
 449.16;18243.736;    2.712;   84.490
 449.32;18363.230;    2.014;   83.936
 449.48;18540.000;    0.188;   84.271
 449.64;18704.725;   -2.043;   83.802
 449.80;18932.352;   -2.402;   84.710
 449.96;19116.900;   -1.900;   83.660
 450.12;19145.803;   -2.536;   83.519
 450.28;19158.748;   -3.376;   83.507
 450.44;19164.615;   -2.974;   84.567
 450.60;19083.188;   -2.119;   84.974
 450.77;19062.418;   -0.374;   84.071
 450.93;18937.779;   -0.690;   83.393
 451.09;18765.406;   -1.536;   84.281
 451.25;18636.770;   -0.881;   85.279
 451.41;18501.143;   -0.812;   85.471
 451.57;18292.988;   -1.424;   84.793
 451.73;18143.340;   -1.288;   84.652
 451.89;18040.725;   -1.357;   84.774
 452.05;17890.945;   -2.279;   84.452
 452.21;17742.088;   -1.205;   83.955
 452.37;17617.846;   -1.669;   83.595
 452.53;17555.494;    0.386;   82.840
 452.69;17665.363;   -0.355;   82.529
 452.85;17662.264;   -0.129;   81.955
 453.01;17704.748;    0.426;   81.967
 453.17;17793.516;    1.490;   82.736
 453.33;17907.516;   -0.507;   82.786
 453.49;18026.484;    1.186;   81.117
 453.65;18227.033;   -0.336;   81.300
 453.81;18203.363;   -0.538;   81.431
 453.97;18353.715;   -0.926;   82.433
 454.13;18411.715;   -1.557;   83.498
 454.29;18408.615;   -1.393;   85.367
 454.45;18512.242;   -0.014;   85.574
 454.61;18597.582;    0.102;   87.814
 454.77;18555.670;    0.576;   89.174
 454.93;18666.373;   -0.364;   89.005
 455.09;18757.604;    1.033;   89.250
 455.25;18909.715;    0.312;   89.719
 455.41;19076.242;   -1.224;   88.002
 455.57;19183.340;   -1.860;   88.871
 455.73;19184.373;   -3.043;   88.964
 455.89;19236.352;   -3.707;   88.195
 456.05;19509.428;   -0.910;   89.764
 456.21;19591.779;   -2.640;   90.643
 456.37;19642.527;   -1.567;   90.450
 456.53;19825.539;   -0.507;   91.433
 456.69;19883.715;    0.138;   90.602
 456.85;19877.143;    0.198;   91.529
 457.01;19974.660;    0.890;   92.498
 457.17;19780.309;    0.407;   93.624
 457.33;19767.318;    1.348;   94.460
 457.49;19723.121;    0.083;   94.300
 457.65;19462.000;   -0.043;   93.869
 457.81;19406.461;   -0.479;   95.176
 457.97;19558.176;   -0.595;   95.240
 458.13;19557.318;   -1.440;   96.224
 458.29;19611.670;   -2.281;   95.517
 458.45;19808.439;   -2.155;   95.700
 458.61;19922.615;   -1.443;   97.869
 458.77;20091.691;   -2.079;   98.176
 458.93;20040.594;   -1.957;   97.469
 459.09;19949.582;   -2.326;   98.729
 459.25;19810.527;   -1.881;   98.117
 459.41;19826.813;   -1.917;   98.157
 459.57;19788.021;   -2.157;   97.612
 459.73;19770.373;   -2.688;   96.929
 459.89;19927.188;   -1.729;   97.507
 460.05;20216.000;   -0.907;   98.995
 460.21;20571.803;   -0.871;   99.050
 460.37;20878.637;   -1.307;   99.110
 460.53;21067.803;   -0.576;   99.431
 460.69;21156.396;   -1.450;   99.519
 460.85;21345.736;   -1.281;   99.450
 461.01;21489.230;   -0.707;   98.862
 461.17;21478.088;   -1.024;   97.602
 461.33;21444.660;   -1.469;   96.195
 461.49;21638.133;   -1.481;   96.821
 461.65;21779.428;   -2.183;   96.500
 461.81;21887.670;   -0.633;   96.698
 461.96;21988.352;    0.093;   95.424
 462.12;22033.033;   -0.871;   95.764
 462.28;22262.242;   -1.840;   97.386
 462.44;22379.406;   -1.024;   96.907
 462.60;22405.188;   -0.498;   97.805
 462.76;22458.133;   -0.157;   98.755
 462.92;22433.055;   -2.012;   98.805
 463.08;22466.660;   -1.995;  100.936
 463.24;22463.955;   -1.250;  102.157
 463.40;22394.527;   -0.319;  102.707
 463.56;22313.891;   -1.374;  104.481
 463.72;22333.033;    0.005;  104.240
 463.88;22302.461;    0.312;  105.681
 464.04;22496.857;    1.500;  107.355
 464.20;22527.955;    0.702;  107.414
 464.36;22516.857;    0.757;  108.098
 464.52;22566.109;   -0.231;  108.205
 464.68;22714.000;    1.529;  109.355
 464.84;22865.143;   -0.221;  111.833
 465.00;23093.076;    0.548;  111.869
 465.16;23192.000;   -0.879;  113.024
 465.32;23333.473;    0.071;  113.450
 465.48;23554.021;   -1.079;  114.862
 465.64;23577.604;   -0.110;  115.193
 465.80;23610.242;   -1.279;  115.157
 465.96;23487.891;   -1.338;  112.602
 466.12;23506.682;   -3.688;  111.567
 466.27;23368.373;   -2.910;  108.564
 466.43;23667.121;   -3.117;  109.757
 466.59;23573.209;   -2.252;  106.193
 466.75;23815.779;   -2.460;  105.948
 466.91;24062.133;   -2.376;  105.164
 467.07;24404.088;   -3.202;  106.271
 467.23;24614.748;   -0.414;  106.250
 467.39;24993.758;    0.093;  107.233
 467.55;24949.736;   -0.700;  105.517
 467.71;25342.549;   -1.145;  107.814
 467.87;25689.561;   -0.110;  107.917
 468.03;26097.055;    0.588;  108.452
 468.19;26278.045;    1.614;  107.793
 468.35;26463.252;    0.388;  108.433
 468.51;26543.891;    1.195;  108.821
 468.67;26730.066;    2.074;  110.033
 468.83;27109.691;    2.176;  109.469
 468.99;27045.979;    1.664;  109.110
 469.15;26991.275;    0.910;  108.050
 469.30;26954.594;    1.083;  108.967
 469.46;26807.230;    1.529;  108.012
 469.62;26775.779;    0.617;  107.214
 469.78;26754.000;   -0.024;  105.888
 469.94;26509.363;   -0.040;  105.433
 470.10;26606.264;   -0.148;  105.021
 470.26;26735.164;   -0.336;  105.967
 470.42;26936.770;    0.414;  104.564
 470.58;27305.406;   -0.098;  105.062
 470.74;27726.967;    0.738;  105.879
 470.90;28238.988;    1.388;  105.824
 471.06;28724.813;    0.386;  105.640
 471.22;29171.824;    0.007;  107.424
 471.38;29581.385;    0.900;  107.479
 471.54;30159.428;    1.255;  109.633
 471.69;30553.691;    1.319;  110.040
 471.85;30628.527;    1.426;  111.252
 472.01;30654.879;    1.110;  112.621
 472.17;30765.055;    1.940;  113.871
 472.33;30674.924;    2.395;  111.669
 472.49;30643.691;    2.112;  112.976
 472.65;30526.748;    2.414;  113.250
 472.81;30567.252;    1.826;  114.014
 472.97;30765.121;    1.614;  113.040
 473.13;30906.945;    0.740;  114.024
 473.29;31038.703;   -0.424;  115.031
 473.45;31283.076;   -1.393;  116.186
 473.61;31578.967;   -2.338;  114.898
 473.76;32058.725;   -4.240;  114.529
 473.92;32362.967;   -3.090;  114.840
 474.08;32637.934;   -5.031;  116.100
 474.24;33013.691;   -3.652;  115.583
 474.40;33312.266;   -3.402;  116.662
 474.56;33712.988;   -2.338;  118.574
 474.72;33866.328;   -3.269;  120.367
 474.88;33845.867;   -1.605;  121.526
 475.04;34004.266;   -1.840;  124.357
 475.20;34169.605;   -0.719;  123.764
 475.36;34184.660;   -1.279;  122.757
 475.51;34208.727;    0.186;  121.860
 475.67;34194.285;   -0.507;  120.690
 475.83;34320.242;    1.624;  120.726
 475.99;34588.746;    1.350;  121.786
 476.15;34825.031;    1.186;  119.145
 476.31;35247.605;    0.750;  120.452
 476.47;35854.219;    0.957;  122.869
 476.63;36523.734;   -0.383;  123.110
 476.79;37092.945;    0.024;  122.869
 476.95;37604.484;   -0.631;  123.348
 477.11;37963.230;   -1.033;  122.336
 477.26;38330.902;   -1.917;  123.671
 477.42;38563.363;   -1.024;  121.498
 477.58;38535.957;   -1.098;  122.529
 477.74;38493.473;    0.224;  123.831
 477.90;38425.320;    0.112;  125.871
 478.06;38408.680;    1.176;  126.288
 478.22;38567.781;    1.055;  127.005
 478.38;38739.363;    2.452;  126.698
 478.54;38985.582;    2.398;  128.614
 478.69;39304.418;    3.576;  127.745
 478.85;39644.879;    3.817;  127.938
 479.01;40183.188;    3.405;  128.126
 479.17;40520.176;    2.912;  128.052
 479.33;40707.582;    3.348;  127.812
 479.49;40796.922;    2.398;  129.443
 479.65;40838.703;    2.138;  129.555
 479.81;40966.637;    0.512;  131.643
 479.97;40974.176;    0.167;  132.021
 480.13;41002.023;   -0.002;  131.652
 480.28;41202.879;   -0.643;  131.831
 480.44;41453.891;   -0.450;  132.471
 480.60;41765.559;   -0.443;  132.612
 480.76;42085.188;    0.131;  134.062
 480.92;42385.910;    1.386;  132.364
 481.08;42763.031;    1.064;  132.910
 481.24;42886.000;    1.138;  133.536
 481.40;43022.375;    2.074;  133.186
 481.55;43036.109;    1.348;  132.374
 481.71;43066.375;    1.226;  130.090
 481.87;43009.559;    1.490;  129.879
 482.03;42978.375;   -0.060;  130.071
 482.19;42923.188;    0.338;  128.660
 482.35;43077.582;    0.283;  129.262
 482.51;43208.988;   -1.167;  129.517
 482.67;43355.383;   -0.945;  129.529
 482.82;43344.199;   -0.595;  129.936
 482.98;43435.031;   -1.793;  129.367
 483.14;43466.746;   -1.300;  128.507
 483.30;43565.098;   -1.402;  128.100
 483.46;43519.891;   -1.090;  126.869
 483.62;43481.055;    0.398;  127.271
 483.78;43511.012;    1.148;  126.536
 483.94;43682.902;    1.226;  128.843
 484.09;43802.133;    2.157;  129.640
 484.25;43844.570;    2.055;  130.805
 484.41;43648.855;    2.862;  132.145
 484.57;43413.715;    1.798;  138.357
 484.73;42903.406;    1.357;  154.498
 484.89;42057.273;   -0.345;  175.881
 485.05;41080.199;   -0.205;  195.440
 485.20;40072.133;   -1.479;  216.310
 485.36;39103.449;   -1.176;  236.231
 485.52;38386.770;   -1.898;  256.138
 485.68;37851.672;    0.395;  264.050
 485.84;37658.813;    0.731;  252.510
 486.00;38033.207;    2.386;  234.183
 486.16;38651.164;    2.121;  214.710
 486.31;39353.734;    2.776;  193.488
 486.47;40198.813;    2.293;  172.852
 486.63;40959.848;    2.252;  153.631
 486.79;41800.395;    1.321;  140.710
 486.95;42611.098;    0.624;  135.421
 487.11;43170.855;    0.236;  132.671
 487.27;43629.207;    1.643;  129.669
 487.42;44072.660;    0.864;  128.081
 487.58;44286.000;    1.081;  126.479
 487.74;44461.273;   -0.507;  123.833
 487.90;44378.703;    0.062;  121.183
 488.06;44258.375;   -0.279;  120.786
 488.22;44169.867;    1.090;  119.964
 488.38;44156.133;   -0.136;  120.271
 488.53;44193.867;   -0.633;  118.545
 488.69;44461.406;   -1.221;  118.929
 488.85;44926.527;    1.090;  118.060
 489.01;45593.363;   -0.326;  118.310
 489.17;46186.395;    0.310;  116.279
 489.33;46750.461;   -2.460;  115.824
 489.48;47150.570;   -2.176;  114.412
 489.64;47411.559;   -1.602;  114.710
 489.80;47441.121;   -0.671;  112.488
 489.96;47392.395;   -2.536;  112.548
 490.12;47268.770;   -2.148;  110.498
 490.28;47208.395;   -2.183;  109.776
 490.43;46998.969;   -0.824;  108.193
 490.59;46771.031;   -1.450;  108.443
 490.75;46533.207;   -1.262;  108.288
 490.91;46381.496;   -0.831;  110.186
 491.07;46025.867;    0.243;  107.907
 491.23;45703.910;   -0.021;  108.300
 491.38;45327.098;    0.395;  108.517
 491.54;45111.824;   -0.621;  108.833
 491.70;45159.406;    0.252;  106.631
 491.86;45377.801;    0.540;  104.738
 492.02;45665.691;    0.633;  102.526
 492.18;46166.285;   -0.136;  103.348
 492.33;46649.254;    0.919;  102.269
 492.49;46994.199;    0.826;  102.100
 492.65;47256.066;    2.367;  102.421
 492.81;47366.328;    0.464;  104.281
 492.97;47323.672;    0.329;  104.212
 493.13;47355.164;   -0.412;  103.929
 493.28;47311.012;   -0.319;  103.964
 493.44;47314.680;   -2.079;  104.071
 493.60;47613.734;   -2.157;  104.126
 493.76;47970.855;   -3.383;  102.243
 493.92;48352.594;   -2.090;  101.393
 494.07;48766.551;   -2.821;  102.243
 494.23;48968.637;   -2.462;  101.402
 494.39;49156.133;   -1.774;  100.957
 494.55;49145.910;    0.148;  100.231
 494.71;48983.867;   -1.079;   98.738
 494.87;48819.539;   -1.252;   98.012
 495.02;48608.484;   -1.717;   96.357
 495.18;48399.145;   -1.452;   95.631
 495.34;48332.969;   -1.460;   97.129
 495.50;48335.891;   -1.138;   95.850
 495.66;48518.680;   -2.145;   96.271
 495.81;48682.879;   -0.757;   97.145
 495.97;48824.793;   -0.431;   97.557
 496.13;49037.957;   -0.186;   97.012
 496.29;49248.969;    0.664;   95.757
 496.45;49477.430;    0.567;   93.469
 496.60;49618.066;   -0.269;   94.138
 496.76;49678.703;   -0.214;   92.402
 496.92;49674.637;   -0.040;   89.471
 497.08;49526.570;    0.710;   88.488
 497.24;49241.230;    1.064;   88.014
 497.39;48948.504;    1.414;   86.736
 497.55;48578.242;    1.007;   85.576
 497.71;48204.504;    1.271;   82.936
 497.87;47926.375;    2.655;   83.948
 498.03;47805.340;    2.929;   83.040
 498.18;48001.012;    3.198;   82.490
 498.34;48306.219;    2.643;   81.736
 498.50;48685.934;    2.340;   81.643
 498.66;49018.793;    3.348;   81.898
 498.82;49379.691;    3.550;   81.986
 498.97;49612.023;    2.795;   80.479
 499.13;49709.758;    2.102;   80.967
 499.29;49561.559;    1.510;   81.117
 499.45;49307.824;    1.950;   81.338
 499.61;48954.395;    3.519;   82.469
 499.76;48682.945;    3.140;   81.890
 499.92;48355.891;    3.224;   81.917
 500.08;48036.441;    2.664;   81.386
 500.24;47809.121;    2.805;   80.840
 500.40;47679.207;    1.931;   80.852
 500.55;47570.484;    1.967;   80.679
 500.71;47487.516;   -0.479;   78.671
 500.87;47358.836;    0.071;   78.536
 501.03;47329.230;   -0.317;   77.938
 501.18;47399.758;   -0.148;   77.288
 501.34;47486.504;   -0.364;   78.805
 501.50;47580.551;   -0.300;   78.374
 501.66;47829.625;   -0.202;   77.348
 501.82;48107.406;    1.290;   77.326
 501.97;48526.727;   -0.117;   78.129
 502.13;48922.441;    1.129;   78.145
 502.29;49269.273;    1.302;   77.833
 502.45;49524.551;    2.090;   76.136
 502.60;49760.879;    0.864;   74.662
 502.76;49748.109;    0.233;   74.250
 502.92;49653.273;   -1.812;   74.214
 503.08;49344.242;   -2.214;   72.745
 503.24;49083.516;   -2.945;   71.024
 503.39;48862.133;   -3.081;   70.498
 503.55;48665.758;   -3.250;   70.529
 503.71;48528.152;   -1.167;   70.793
 503.87;48622.461;   -1.012;   71.386
 504.02;48848.461;    0.767;   70.983
 504.18;49224.484;    1.836;   70.262
 504.34;49546.527;    1.929;   70.460
 504.50;49861.449;    0.226;   71.557
 504.66;50349.340;   -0.938;   70.688
 504.81;50794.945;   -1.993;   70.290
 504.97;51205.383;   -1.157;   68.802
 505.13;51598.242;   -1.479;   69.395
 505.29;51843.715;   -3.024;   69.440
 505.44;52074.199;   -2.717;   68.862
 505.60;52217.383;   -1.071;   67.974
 505.76;52208.660;   -1.298;   68.281
 505.92;52077.473;   -0.414;   68.393
 506.07;51816.266;   -1.021;   68.510
 506.23;51559.145;   -0.795;   67.774
 506.39;51422.504;    0.731;   66.300
 506.55;51257.164;   -0.710;   67.183
 506.70;51109.363;   -1.888;   66.243
 506.86;50801.691;   -0.662;   64.898
 507.02;50657.848;   -0.317;   63.776
 507.18;50551.273;    0.119;   62.621
 507.33;50464.090;    0.055;   62.595
 507.49;50306.969;   -0.271;   63.650
 507.65;50300.527;    0.788;   63.014
 507.81;50424.594;    1.795;   62.831
 507.96;50820.793;    2.140;   63.110
 508.12;51193.430;    2.062;   62.364
 508.28;51663.734;    0.826;   63.414
 508.44;51928.285;    0.452;   61.993
 508.59;52222.242;    1.369;   61.357
 508.75;52288.023;    0.767;   60.383
 508.91;52276.352;    0.540;   61.290
 509.07;52186.484;    0.548;   61.107
 509.22;52019.340;   -0.555;   62.110
 509.38;51717.340;    0.443;   61.517
 509.54;51578.637;    0.817;   61.519
 509.70;51512.594;   -0.024;   61.774
 509.85;51645.406;    0.960;   61.424
 510.01;51722.090;    2.186;   59.069
 510.17;51805.363;    1.826;   58.567
 510.33;51980.902;    2.271;   57.393
 510.48;52234.902;    2.140;   56.386
 510.64;52544.727;    2.110;   56.145
 510.80;52926.770;    2.836;   55.005
 510.95;53119.848;    1.919;   55.460
 511.11;53315.957;    0.807;   56.929
 511.27;53359.758;    0.614;   57.126
 511.43;53327.516;    0.579;   57.805
 511.58;53166.176;    1.919;   58.517
 511.74;52924.133;    2.045;   57.662
 511.90;52526.922;    1.367;   57.079
 512.06;52203.207;    1.407;   57.033
 512.21;51990.484;    2.281;   56.374
 512.37;51913.891;    2.064;   56.062
 512.53;51791.801;    2.643;   54.964
 512.68;51806.418;    1.274;   54.614
 512.84;51775.145;    1.595;   54.507
 513.00;51713.055;    1.617;   55.386
 513.16;51677.121;    2.443;   54.069
 513.31;51577.582;    0.512;   54.281
 513.47;51401.648;    1.176;   53.355
 513.63;51379.957;   -0.012;   53.452
 513.79;51387.801;   -0.538;   52.488
 513.94;51485.848;   -1.250;   53.395
 514.10;51628.637;   -2.462;   52.488
 514.26;51776.043;   -3.717;   51.795
 514.41;51937.121;   -2.062;   51.545
 514.57;52280.836;   -2.402;   51.681
 514.73;52490.660;   -1.405;   50.860
 514.89;52704.352;   -1.440;   51.519
 515.04;52862.000;   -2.405;   50.955
 515.20;52939.164;   -2.593;   50.757
 515.36;52751.449;   -1.671;   53.069
 515.51;52342.066;   -2.660;   52.671
 515.67;51626.484;   -1.586;   53.164
 515.83;50713.715;   -1.717;   53.738
 515.98;49443.891;   -0.786;   52.183
 516.14;48162.945;    0.255;   51.767
 516.30;47000.152;    1.986;   52.202
 516.46;46308.352;    1.645;   50.290
 516.61;46163.758;    2.548;   48.564
 516.77;46327.254;    1.940;   47.995
 516.93;46663.715;    2.986;   46.688
 517.08;47262.152;    2.331;   47.024
 517.24;47886.617;    1.233;   45.936
 517.40;48492.617;    0.693;   45.852
 517.56;48877.473;    1.119;   45.669
 517.71;48856.660;    1.121;   46.138
 517.87;48595.672;    1.252;   44.936
 518.03;48562.727;    0.436;   45.929
 518.18;48794.617;    1.281;   46.221
 518.34;49187.383;    1.779;   47.948
 518.50;49560.945;    2.157;   46.412
 518.65;50022.770;    2.036;   46.548
 518.81;50516.988;    2.157;   45.974
 518.97;51262.637;    1.131;   47.681
 519.12;51918.219;    0.814;   47.069
 519.28;52296.660;   -0.583;   46.976
 519.44;52476.461;   -0.138;   45.212
 519.60;52640.703;   -0.479;   46.062
 519.75;52719.230;    0.233;   46.231
 519.91;52821.363;    0.007;   47.957
 520.07;52834.133;    0.519;   47.079
 520.22;52748.176;    0.550;   46.700
 520.38;52767.848;    0.081;   46.269
 520.54;52899.824;   -0.907;   46.890
 520.69;53143.230;   -0.576;   47.526
 520.85;53432.703;   -1.555;   47.548
 521.01;53747.012;   -1.938;   46.498
 521.16;53864.793;   -2.193;   46.910
 521.32;53947.055;   -1.138;   48.079
 521.48;53939.340;    0.093;   47.490
 521.63;53818.176;    1.710;   46.402
 521.79;53612.309;    1.855;   45.948
 521.95;53233.516;    3.424;   45.907
 522.10;52806.109;    3.855;   46.633
 522.26;52465.078;    3.281;   46.888
 522.42;52361.145;    1.855;   45.119
 522.57;52387.363;    3.490;   44.079
 522.73;52596.352;    2.321;   44.567
 522.89;52779.320;    1.300;   44.812
 523.04;53141.449;   -1.183;   44.624
 523.20;53638.617;   -2.100;   43.650
 523.36;54257.496;   -0.707;   42.233
 523.52;54681.297;   -0.700;   42.069
 523.67;54949.145;   -2.212;   43.643
 523.83;55076.199;   -0.871;   44.707
 523.99;55172.043;   -0.774;   45.310
 524.14;55161.164;    1.176;   45.298
 524.30;54999.648;    1.626;   46.929
 524.45;54787.977;    0.614;   46.221
 524.61;54714.594;    1.350;   47.300
 524.77;54645.691;    1.595;   46.498
 524.92;54517.363;    0.693;   46.129
 525.08;54321.340;    1.548;   44.831
 525.24;54041.801;    0.760;   44.900
 525.39;53682.266;    0.386;   44.002
 525.55;53104.969;    0.226;   44.129
 525.71;52158.441;    0.957;   43.231
 525.86;51257.363;    0.569;   44.043
 526.02;50378.617;   -0.176;   44.345
 526.18;49714.988;   -0.993;   44.033
 526.33;49249.734;   -0.814;   42.602
 526.49;49144.660;   -0.736;   41.929
 526.65;49293.867;    0.671;   42.260
 526.80;49893.320;   -0.783;   43.500
 526.96;50521.691;   -0.395;   43.279
 527.12;51208.703;   -0.793;   43.919
 527.27;51915.934;   -1.348;   45.212
 527.43;52633.758;   -1.679;   47.090
 527.59;53160.152;   -0.090;   46.783
 527.74;53638.285;   -2.936;   47.490
 527.90;53940.727;   -2.462;   47.126
 528.06;54335.340;   -3.460;   46.776
 528.21;54814.746;   -3.843;   45.993
 528.37;55101.715;   -1.840;   45.919
 528.52;55219.582;   -2.090;   45.336
 528.68;55174.551;   -3.345;   46.471
 528.84;55095.625;   -1.729;   46.650
 528.99;54978.152;   -2.726;   47.052
 529.15;54727.977;   -1.357;   48.974
 529.31;54409.145;    0.036;   48.433
 529.46;54152.680;   -0.329;   48.602
 529.62;54116.879;   -0.317;   47.967
 529.78;54293.121;   -0.462;   46.640
 529.93;54561.977;   -1.002;   46.376
 530.09;54823.098;   -0.881;   45.755
 530.24;55114.199;   -2.879;   44.824
 530.40;55337.473;   -3.176;   44.955
 530.56;55591.781;   -3.974;   43.443
 530.71;55666.570;   -3.843;   45.021
 530.87;55616.090;   -4.279;   45.129
 531.03;55395.320;   -3.157;   44.536
 531.18;55083.516;   -3.088;   44.110
 531.34;54723.758;   -1.900;   43.126
 531.50;54233.145;   -2.888;   43.729
 531.65;53631.625;   -2.319;   44.317
 531.81;53022.066;   -1.850;   43.786
 531.96;52433.297;   -0.310;   44.650
 532.12;52051.781;   -2.117;   45.824
 532.28;51807.891;   -1.329;   45.869
 532.43;51721.012;   -1.707;   47.671
 532.59;51864.945;    0.243;   47.460
 532.74;52149.977;   -0.707;   46.433
 532.90;52546.395;   -0.786;   45.240
 533.06;52891.121;   -0.983;   45.843
 533.21;53090.219;    0.567;   45.136
 533.37;53251.559;    0.598;   45.938
 533.53;53216.023;    1.462;   44.593
 533.68;53156.000;   -0.250;   46.205
 533.84;53077.867;    1.033;   45.964
 533.99;53040.441;   -0.374;   47.090
 534.15;53112.461;   -1.262;   46.345
 534.31;53249.496;   -3.631;   48.424
 534.46;53463.188;   -3.986;   49.069
 534.62;53810.813;   -4.631;   49.548
 534.77;54147.801;   -2.976;   47.212
 534.93;54490.418;   -4.469;   48.719
 535.09;54688.109;   -3.386;   47.669
 535.24;54795.691;   -2.517;   46.662
 535.40;54793.297;   -0.938;   43.164
 535.56;54636.000;   -0.688;   42.138
 535.71;54255.539;   -0.176;   41.336
 535.87;53751.867;   -1.679;   41.814
 536.02;53100.375;   -0.157;   41.069
 536.18;52668.266;   -0.221;   42.281
 536.34;52283.012;   -0.967;   42.831
 536.49;52062.770;   -0.326;   45.233
 536.65;51903.672;   -1.748;   44.593
 536.80;52074.152;   -2.136;   45.643
 536.96;52311.320;   -0.890;   45.364
 537.12;52739.734;   -1.821;   46.376
 537.27;52924.152;   -1.129;   44.974
 537.43;53131.121;   -1.345;   45.624
 537.58;53234.570;   -1.948;   43.602
 537.74;53332.570;    0.036;   45.462
 537.90;53201.430;    0.071;   44.279
 538.05;53095.383;   -0.793;   45.148
 538.21;52889.781;    0.243;   44.431
 538.36;52710.988;    0.140;   45.776
 538.52;52398.660;    1.148;   45.621
 538.67;52063.473;   -0.612;   46.100
 538.83;51754.660;   -0.110;   45.526
 538.99;51521.098;   -1.107;   46.767
 539.14;51191.582;   -0.605;   46.231
 539.30;50858.770;   -1.898;   46.281
 539.45;50590.219;   -3.157;   45.945
 539.61;50426.855;   -3.288;   47.319
 539.77;50224.418;   -0.871;   48.231
 539.92;50074.770;   -1.583;   47.405
 540.08;49911.145;    0.176;   47.002
 540.23;49910.504;   -0.193;   46.805
 540.39;50008.461;   -0.024;   46.717
 540.54;50149.848;    0.521;   45.871
 540.70;50295.672;    0.090;   43.764
 540.86;50610.199;    0.045;   44.548
 541.01;50858.352;   -1.595;   44.812
 541.17;51097.012;   -2.621;   46.329
 541.32;51296.902;   -1.900;   46.221
 541.48;51426.504;   -1.117;   47.138
 541.63;51369.430;   -0.824;   47.469
 541.79;51358.727;   -1.155;   49.062
 541.95;51195.672;   -0.300;   47.593
 542.10;51078.594;    0.550;   46.405
 542.26;51009.516;    1.243;   44.660
 542.41;50830.504;    0.598;   44.652
 542.57;50636.199;    0.748;   43.755
 542.72;50718.855;    0.264;   43.738
 542.88;50792.375;    0.890;   42.555
 543.04;51019.781;    0.226;   44.967
 543.19;51187.496;    0.757;   47.040
 543.35;51328.441;   -0.498;   47.014
 543.50;51512.285;   -0.386;   46.640
 543.66;51701.672;   -1.879;   48.243
 543.81;51780.066;   -1.576;   49.936
 543.97;51779.605;   -3.269;   50.967
 544.13;51583.273;   -2.805;   49.431
 544.28;51420.352;   -3.221;   48.443
 544.44;51319.539;   -2.176;   50.250
 544.59;51306.242;   -1.164;   51.138
 544.75;51325.824;    0.205;   50.574
 544.90;51241.891;    0.360;   49.976
 545.06;51153.430;    2.176;   48.755
 545.21;51201.230;    1.017;   49.300
 545.37;51256.285;    1.529;   50.002
 545.53;51282.461;    1.264;   49.738
 545.68;51213.516;    0.167;   49.774
 545.84;51168.617;   -0.774;   50.700
 545.99;51144.855;   -0.081;   50.307
 546.15;51222.418;   -0.288;   52.157
 546.30;51144.855;   -0.729;   51.450
 546.46;51074.109;   -0.736;   50.890
 546.61;50920.855;   -1.195;   49.879
 546.77;50749.582;   -1.202;   49.862
 546.92;50469.734;   -0.710;   48.031
 547.08;50264.793;   -1.564;   48.614
 547.24;50036.109;   -0.290;   47.260
 547.39;49952.219;    1.102;   47.700
 547.55;49882.352;    0.843;   47.564
 547.70;49954.855;    1.140;   47.357
 547.86;50144.066;    0.948;   47.745
 548.01;50380.090;    0.636;   48.662
 548.17;50583.891;    1.605;   48.374
 548.32;50717.230;    1.007;   49.710
 548.48;50862.922;    0.605;   48.374
 548.63;51011.473;    0.093;   48.948
 548.79;51024.988;    1.348;   49.621
 548.94;50991.383;    2.169;   50.014
 549.10;50920.152;    2.643;   49.079
 549.26;50907.031;    1.436;   48.605
 549.41;50840.109;    1.281;   48.374
 549.57;50746.418;    1.236;   50.376
 549.72;50668.109;    1.262;   50.183
 549.88;50561.449;   -0.279;   49.738
 550.03;50443.320;   -0.195;   49.298
 550.19;50403.648;   -0.602;   50.052
 550.34;50302.309;   -1.071;   50.574
 550.50;50315.910;   -2.498;   49.271
 550.65;50335.625;   -1.452;   49.736
 550.81;50378.461;   -1.688;   50.729
 550.96;50469.207;   -1.052;   50.907
 551.12;50646.328;   -2.326;   50.652
 551.27;50706.836;   -1.795;   50.364
 551.43;50808.746;   -1.288;   49.548
 551.58;50776.945;   -0.071;   50.583
 551.74;50693.848;   -1.764;   50.795
 551.89;50528.418;   -1.148;   49.431
 552.05;50374.855;   -0.860;   49.167
 552.20;50132.199;    1.138;   48.860
 552.36;49951.559;    0.274;   49.310
 552.52;49795.012;    0.662;   49.231
 552.67;49822.242;   -0.107;   48.586
 552.83;49919.891;    0.871;   47.974
 552.98;50065.934;    2.550;   48.919
 553.14;50195.406;    2.938;   49.469
 553.29;50328.090;    1.750;   48.633
 553.45;50521.734;    2.100;   48.412
 553.60;50712.660;    2.798;   50.329
 553.76;50742.219;    4.319;   51.374
 553.91;50835.910;    4.445;   50.995
 554.07;50823.758;    2.481;   50.031
 554.22;50870.152;    1.483;   49.767
 554.38;50906.922;    2.376;   51.440
 554.53;50954.504;    3.321;   51.729
 554.69;50930.969;    2.833;   50.326
 554.84;50976.043;    0.436;   49.376
 555.00;50828.637;    0.443;   48.145
 555.15;50758.328;    0.950;   49.700
 555.31;50646.703;    1.633;   49.202
 555.46;50525.848;    1.274;   47.843
 555.62;50293.910;    1.110;   47.050
 555.77;50049.406;   -0.536;   46.805
 555.93;49748.855;    0.681;   47.021
 556.08;49598.770;   -0.145;   48.052
 556.24;49396.594;   -0.081;   46.307
 556.39;49264.527;   -1.002;   48.176
 556.55;49179.012;   -0.433;   49.288
 556.70;49183.430;   -1.974;   48.633
 556.86;49204.988;   -1.376;   48.898
 557.01;49384.879;   -1.860;   50.081
 557.17;49487.848;   -0.462;   48.479
 557.32;49596.879;   -1.136;   49.386
 557.48;49514.793;   -1.281;   48.098
 557.63;49385.406;   -2.650;   45.633
 557.78;49179.934;   -1.567;   46.079
 557.94;48973.273;   -0.517;   46.443
 558.09;48610.484;   -0.148;   45.098
 558.25;48317.715;   -1.869;   47.900
 558.40;48080.199;   -0.719;   47.126
 558.56;48013.539;    0.255;   47.214
 558.71;48012.285;    0.490;   49.326
 558.87;48042.242;    0.160;   50.043
 559.02;48057.691;    0.548;   49.888
 559.18;48188.219;    0.455;   49.338
 559.33;48347.539;    1.510;   47.126
 559.49;48573.320;    1.083;   47.386
 559.64;48751.363;    0.433;   47.040
 559.80;48949.320;   -0.679;   47.576
 559.95;49229.648;   -0.310;   47.593
 560.11;49556.746;   -1.879;   46.881
 560.26;49749.254;   -1.310;   46.964
 560.42;49806.988;   -1.555;   47.262
 560.57;49765.648;   -1.005;   47.050
 560.73;49727.516;   -0.964;   47.233
 560.88;49562.836;    0.595;   45.936
 561.03;49319.164;    0.226;   45.776
 561.19;49048.680;    0.852;   46.555
 561.34;48885.672;    0.160;   46.862
 561.50;48886.266;    0.919;   45.707
 561.65;48898.770;   -0.926;   46.805
 561.81;48960.855;   -1.271;   46.440
 561.96;49124.441;   -0.926;   47.081
 562.12;49291.449;    0.271;   46.936
 562.27;49479.957;   -0.336;   47.405
 562.43;49632.152;    1.024;   47.221
 562.58;49655.430;   -0.345;   49.167
 562.74;49630.219;    1.110;   47.479
 562.89;49576.703;    0.645;   47.786
 563.04;49434.484;    1.557;   47.383
 563.20;49319.910;    0.893;   47.519
 563.35;49169.340;    2.643;   46.279
 563.51;49146.242;    1.217;   46.214
 563.66;49048.637;    2.148;   45.660
 563.82;49084.660;    1.798;   46.452
 563.97;49120.461;    2.976;   45.974
 564.13;49162.988;    0.969;   46.090
 564.28;49156.902;    0.671;   45.098
 564.44;49159.164;   -1.193;   45.310
 564.59;48974.176;   -1.224;   45.240
 564.74;48864.090;   -1.050;   45.576
 564.90;48666.793;    0.386;   46.326
 565.05;48389.188;    0.140;   46.138
 565.21;48178.703;    0.862;   46.621
 565.36;48017.363;   -0.412;   47.795
 565.52;47862.879;    0.300;   49.231
 565.67;47939.340;    0.674;   49.757
 565.83;48030.793;    0.157;   48.069
 565.98;48235.254;   -0.993;   46.824
 566.13;48488.152;   -1.271;   46.260
 566.29;48706.418;   -2.621;   46.843
 566.44;48928.727;   -1.338;   46.269
 566.60;49200.441;   -1.431;   45.700
 566.75;49339.055;   -1.500;   44.802
 566.91;49439.031;   -2.240;   46.357
 567.06;49344.855;   -2.795;   47.917
 567.22;49232.043;   -2.564;   49.576
 567.37;49081.734;   -1.919;   47.231
 567.52;48862.945;   -0.907;   46.805
 567.68;48562.746;   -0.633;   46.936
 567.83;48264.969;   -0.745;   47.319
 567.99;48061.430;    0.976;   47.602
 568.14;47957.449;    1.293;   45.452
 568.30;47861.430;    1.671;   44.450
 568.45;47859.824;    1.664;   45.671
 568.60;47894.219;    1.005;   46.726
 568.76;48041.363;    0.636;   45.948
 568.91;48088.855;    0.681;   45.955
 569.07;48143.957;   -0.612;   45.110
 569.22;48123.848;   -0.433;   46.774
 569.37;48092.922;   -0.621;   47.386
 569.53;47937.957;    0.814;   48.393
 569.68;47750.418;    0.274;   49.243
 569.84;47401.473;    2.176;   48.698
 569.99;47147.383;    1.826;   48.395
 570.15;46797.383;    2.138;   49.412
 570.30;46572.219;    0.969;   49.357
 570.45;46365.691;    1.224;   47.440
 570.61;46345.582;    0.493;   47.414
 570.76;46439.539;    1.129;   45.326
 570.92;46748.352;   -0.783;   46.414
 571.07;46989.254;    0.157;   45.964
 571.22;47370.902;   -0.726;   46.529
 571.38;47744.594;    0.871;   45.660
 571.53;48141.188;    0.426;   48.386
 571.69;48388.328;    0.681;   47.736
 571.84;48543.078;    0.769;   48.452
 572.00;48607.672;    2.119;   47.288
 572.15;48736.969;    2.207;   48.395
 572.30;48684.637;    3.224;   46.269
 572.46;48653.758;    2.407;   47.014
 572.61;48573.254;    2.595;   45.021
 572.77;48540.219;    2.140;   46.205
 572.92;48538.527;    1.310;   46.421
 573.07;48488.395;   -0.460;   46.986
 573.23;48407.891;   -0.805;   46.840
 573.38;48448.000;   -2.031;   47.719
 573.54;48354.660;   -1.148;   46.564
 573.69;48282.770;   -1.250;   48.843
 573.84;48195.758;   -1.357;   48.450
 574.00;48053.848;   -2.545;   50.052
 574.15;47881.957;   -1.300;   49.917
 574.31;47733.934;   -1.183;   49.471
 574.46;47486.133;    0.948;   51.031
 574.61;47392.000;   -0.640;   53.376
 574.77;47222.441;   -1.757;   51.621
 574.92;47070.461;   -2.069;   51.967
 575.07;46940.988;    0.100;   51.164
 575.23;46934.375;    0.579;   51.719
 575.38;46920.504;    0.843;   52.307
 575.54;47057.363;    0.074;   51.871
 575.69;47008.551;    0.910;   50.831
 575.84;47078.902;    1.807;   52.186
 576.00;47191.449;    2.224;   50.612
 576.15;47305.230;    0.264;   49.500
 576.31;47346.090;   -1.262;   49.574
 576.46;47429.363;   -1.812;   48.443
 576.61;47349.867;   -2.519;   47.640
 576.77;47344.090;   -2.098;   47.319
 576.92;47272.945;   -1.786;   46.145
 577.07;47104.969;   -1.612;   47.233
 577.23;46956.727;    0.062;   47.736
 577.38;46704.266;    0.664;   48.252
 577.54;46444.680;    1.205;   49.536
 577.69;46242.902;    2.979;   49.386
 577.84;46041.473;    1.862;   49.355
 578.00;45932.484;    1.645;   49.510
 578.15;45885.648;    2.100;   48.288
 578.30;45909.758;    1.255;   48.167
 578.46;45970.570;    1.557;   47.802
 578.61;46055.605;    0.702;   47.795
 578.77;46149.781;   -0.919;   47.850
 578.92;46265.848;   -0.107;   48.557
 579.07;46371.406;    0.100;   48.698
 579.23;46446.375;   -0.955;   50.024
 579.38;46406.266;   -0.862;   49.707
 579.53;46508.090;   -2.831;   48.833
 579.69;46497.473;   -2.871;   49.545
 579.84;46540.000;   -3.088;   49.624
 579.99;46538.660;   -3.652;   49.536
 580.15;46488.836;   -2.317;   50.376
 580.30;46412.242;   -2.433;   50.679
 580.46;46447.383;   -1.888;   51.176
 580.61;46401.031;    0.414;   53.250
 580.76;46431.867;   -0.012;   53.205
 580.92;46440.199;    0.481;   53.098
 581.07;46490.504;    0.160;   52.424
 581.22;46516.727;   -0.700;   52.831
 581.38;46641.055;    1.369;   52.967
 581.53;46713.516;    0.938;   52.269
 581.68;46803.781;    1.350;   51.376
 581.84;46824.461;    2.786;   50.507
 581.99;46794.152;    2.779;   50.890
 582.14;46778.527;    4.110;   51.726
 582.30;46783.297;    3.521;   51.348
 582.45;46711.055;    1.738;   51.031
 582.60;46630.770;    2.045;   52.129
 582.76;46475.496;    1.681;   52.583
 582.91;46427.164;    1.360;   54.357
 583.07;46388.855;    1.376;   54.174
 583.22;46333.406;    0.131;   55.224
 583.37;46272.461;    0.443;   54.279
 583.53;46229.320;    1.731;   54.081
 583.68;46146.746;    1.376;   54.288
 583.83;46116.617;    0.074;   54.710
 583.99;46003.625;    0.290;   52.774
 584.14;45876.836;    0.226;   52.576
 584.29;45709.648;    0.995;   50.955
 584.45;45541.363;    0.264;   52.319
 584.60;45294.000;   -0.748;   52.879
 584.75;45095.340;   -0.774;   53.462
 584.91;44852.504;   -0.948;   53.079
 585.06;44636.617;   -1.793;   54.690
 585.21;44474.703;   -1.186;   56.050
 585.37;44352.617;   -1.202;   57.490
 585.52;44253.383;    0.310;   55.679
 585.67;44318.242;    0.902;   55.843
 585.83;44374.352;    0.710;   55.412
 585.98;44552.090;    1.531;   55.424
 586.13;44690.309;    1.548;   54.421
 586.29;44825.582;    0.112;   53.995
 586.44;44975.715;   -0.062;   52.783
 586.59;45082.109;   -0.440;   54.557
 586.75;45087.230;   -0.519;   53.717
 586.90;45057.055;   -0.660;   55.652
 587.05;44938.703;    0.890;   54.136
 587.20;44847.430;    0.369;   54.205
 587.36;44624.285;    1.348;   53.421
 587.51;44298.375;    0.988;   54.586
 587.66;43821.648;    0.395;   54.079
 587.82;43233.934;   -0.393;   54.786
 587.97;42615.098;    0.195;   52.498
 588.12;41897.449;   -1.698;   54.652
 588.28;41100.199;    0.176;   56.412
 588.43;40336.309;   -0.345;   57.462
 588.58;39593.473;   -0.443;   56.717
 588.74;39198.023;   -1.650;   57.633
 588.89;39064.109;   -0.948;   57.450
 589.04;39084.441;   -1.279;   59.395
 589.20;39233.559;   -1.148;   57.679
 589.35;39606.199;   -1.602;   56.567
 589.50;40191.449;   -0.062;   56.050
 589.65;40847.297;    0.836;   56.967
 589.81;41429.383;    1.814;   55.307
 589.96;41871.121;    1.750;   55.110
 590.11;42159.273;    2.129;   53.993
 590.27;42436.000;    0.883;   54.519
 590.42;42534.000;    0.052;   54.050
 590.57;42542.418;   -0.793;   53.329
 590.73;42509.078;   -0.405;   51.555
 590.88;42396.441;    0.340;   52.824
 591.03;42240.461;    0.624;   52.926
 591.19;42205.188;    1.702;   52.614
 591.34;42140.418;    2.890;   53.374
 591.49;42154.418;    2.502;   53.357
 591.64;42067.012;    2.786;   54.536
 591.80;42043.648;    2.331;   56.919
 591.95;42021.164;    2.252;   55.964
 592.10;42089.715;    1.036;   57.405
 592.26;42066.836;    0.681;   57.088
 592.41;42112.484;    0.750;   57.071
 592.56;42081.648;    1.186;   57.288
 592.71;42140.090;    0.283;   57.490
 592.87;42144.988;   -0.281;   56.345
 593.02;42215.824;   -1.583;   58.033
 593.17;42190.133;   -1.338;   57.040
 593.33;42207.031;   -3.412;   56.967
 593.48;42096.945;   -2.567;   56.421
 593.63;42017.145;   -2.440;   56.776
 593.78;41833.430;   -1.843;   56.212
 593.94;41714.109;   -2.517;   56.738
 594.09;41516.727;   -2.433;   55.107
 594.24;41400.395;   -1.126;   54.852
 594.40;41252.727;    0.586;   56.060
 594.55;41248.000;   -0.631;   57.129
 594.70;41259.539;    0.500;   56.174
 594.85;41397.801;    1.226;   56.519
 595.01;41474.000;    1.976;   55.583
 595.16;41624.746;    2.731;   55.967
 595.31;41722.043;    1.767;   55.888
 595.46;41835.867;    2.188;   54.662
 595.62;41875.188;    1.548;   54.269
 595.77;41965.977;   -0.060;   56.310
 595.92;41944.504;   -1.243;   55.898
 596.08;41995.078;   -1.164;   56.824
 596.23;41914.660;   -0.805;   57.345
 596.38;41865.977;   -1.374;   57.167
 596.53;41790.484;   -1.195;   57.383
 596.69;41744.879;   -0.783;   57.281
 596.84;41655.977;   -0.348;   55.936
 596.99;41616.746;   -0.155;   57.300
 597.14;41477.867;    0.052;   58.298
 597.30;41383.648;    0.198;   58.586
 597.45;41258.309;   -0.424;   58.669
 597.60;41212.000;   -1.774;   59.900
 597.75;41133.383;   -1.090;   61.221
 597.91;41059.473;   -0.945;   62.157
 598.06;40964.418;   -0.481;   61.955
 598.21;40960.133;   -0.212;   61.710
 598.36;40979.848;   -1.205;   62.126
 598.52;41039.207;   -0.574;   64.148
 598.67;41038.570;    0.500;   63.498
 598.82;41115.824;   -0.088;   63.052
 598.98;41106.441;   -0.310;   62.221
 599.13;41152.352;   -0.498;   62.110
 599.28;41148.328;   -0.281;   61.545
 599.43;41113.758;   -0.621;   61.071
 599.59;40999.715;    0.586;   59.440
 599.74;40919.516;   -0.145;   59.281
 599.89;40762.793;    1.405;   57.126
 600.04;40692.660;    1.064;   58.110
 600.20;40594.484;    0.519;   57.412
 600.35;40477.848;   -0.707;   57.719
 600.50;40375.715;    0.871;   58.317
 600.65;40373.758;   -0.136;   58.481
 600.80;40277.691;    0.490;   59.460
 600.96;40226.680;   -0.650;   61.252
 601.11;40110.395;   -0.014;   59.298
 601.26;40030.680;    0.464;   59.862
 601.41;39964.152;    0.652;   59.955
 601.57;39953.625;   -1.526;   58.910
 601.72;39943.363;    0.262;   59.421
 601.87;40017.848;   -0.945;   59.452
 602.02;40133.910;   -0.233;   59.107
 602.18;40306.375;   -1.402;   61.386
 602.33;40432.285;   -0.462;   61.421
 602.48;40639.254;   -0.688;   61.376
 602.63;40813.430;    0.348;   61.364
 602.79;40933.934;   -1.221;   61.405
 602.94;41021.691;    0.462;   60.555
 603.09;41038.945;    2.188;   61.529
 603.24;41014.879;    3.576;   61.488
 603.39;41064.090;    2.693;   62.071
 603.55;40998.793;    4.157;   60.231
 603.70;40956.484;    4.150;   60.652
 603.85;40911.406;    3.910;   60.250
 604.00;40904.793;    1.436;   59.548
 604.16;40871.496;    0.129;   58.698
 604.31;40845.320;   -1.136;   57.738
 604.46;40766.746;   -0.843;   56.612
 604.61;40775.867;   -1.155;   58.652
 604.76;40670.309;   -1.024;   58.802
 604.92;40644.441;    0.045;   59.576
 605.07;40534.746;    2.110;   60.736
 605.22;40480.133;    0.807;   61.729
 605.37;40391.758;    1.738;   60.736
 605.53;40385.582;    0.864;   62.738
 605.68;40293.297;    1.119;   62.126
 605.83;40304.922;    0.893;   62.767
 605.98;40237.121;    1.424;   62.821
 606.13;40285.672;    1.607;   62.671
 606.29;40313.297;    2.738;   60.736
 606.44;40389.582;    2.760;   63.167
 606.59;40333.031;    4.252;   61.288
 606.74;40306.551;    2.636;   62.433
 606.89;40156.988;    3.395;   63.936
 607.05;40080.043;    1.902;   63.167
 607.20;39893.691;    1.081;   63.460
 607.35;39676.000;   -0.069;   65.405
 607.50;39425.867;    1.310;   63.183
 607.65;39264.969;   -0.231;   63.681
 607.81;39107.977;   -0.014;   63.107
 607.96;39050.551;   -1.955;   61.729
 608.11;38924.770;   -2.176;   62.202
 608.26;38872.703;   -1.869;   62.157
 608.41;38836.328;   -0.729;   61.202
 608.57;38860.176;   -1.698;   63.157
 608.72;38852.066;   -0.700;   63.193
 608.87;38766.727;   -0.717;   62.462
 609.02;38655.582;    1.329;   62.602
 609.17;38529.891;    2.502;   62.671
 609.33;38362.617;    2.119;   62.993
 609.48;38203.648;    0.769;   63.995
 609.63;38020.152;   -0.357;   62.917
 609.78;37818.902;   -1.402;   63.748
 609.93;37685.254;   -1.119;   63.840
 610.09;37652.570;   -0.974;   62.890
 610.24;37611.230;   -2.052;   62.726
 610.39;37610.727;   -4.136;   62.443
 610.54;37594.219;   -3.367;   61.317
 610.69;37567.824;   -1.517;   61.062
 610.84;37463.055;   -0.262;   60.345
 611.00;37382.461;    0.283;   60.138
 611.15;37167.582;    0.757;   60.069
 611.30;36919.734;    1.426;   60.071
 611.45;36661.691;    3.843;   58.888
 611.60;36346.813;    2.988;   59.195
 611.76;35996.855;    1.900;   59.517
 611.91;35732.000;    0.750;   58.967
 612.06;35467.715;    1.633;   59.374
 612.21;35218.855;   -0.317;   60.376
 612.36;34937.648;    0.052;   59.869
 612.51;34593.098;   -0.593;   60.710
 612.67;34290.395;    0.890;   60.460
 612.82;33962.023;    0.226;   61.043
 612.97;33591.977;   -0.157;   60.669
 613.12;33190.902;   -0.193;   60.386
 613.27;32795.672;    1.071;   59.212
 613.42;32562.330;   -0.498;   59.824
 613.58;32472.988;   -0.557;   60.507
 613.73;32414.197;   -1.879;   60.519
 613.88;32454.527;   -2.310;   61.174
 614.03;32618.857;   -1.412;   63.614
 614.18;32974.266;   -1.852;   63.355
 614.33;33508.441;   -1.907;   64.357
 614.49;33984.328;   -0.205;   64.136
 614.64;34424.660;   -0.164;   63.729
 614.79;34900.770;    0.233;   64.707
 614.94;35328.703;    2.083;   63.890
 615.09;35657.910;    1.052;   62.002
 615.24;35847.734;    1.207;   62.138
 615.39;35854.527;    1.614;   61.279
 615.55;35839.824;    0.940;   61.900
 615.70;35767.406;    1.119;   61.421
 615.85;35688.570;    0.598;   59.995
 616.00;35678.309;    0.281;   59.621
 616.15;35732.219;    1.674;   60.586
 616.30;35762.266;    1.624;   60.860
 616.46;35842.727;    0.369;   61.681
 616.61;35982.176;    0.900;   59.821
 616.76;36158.680;    0.255;   60.767
 616.91;36312.637;    0.833;   61.679
 617.06;36434.375;    1.150;   63.024
 617.21;36505.297;    0.643;   63.098
 617.36;36582.988;   -0.298;   65.071
 617.52;36677.031;    0.310;   65.307
 617.67;36722.066;   -0.679;   68.005
 617.82;36684.680;    0.395;   66.050
 617.97;36667.734;    0.445;   66.157
 618.12;36612.594;    0.681;   65.726
 618.27;36544.266;   -0.107;   65.252
 618.42;36479.758;    0.471;   63.736
 618.58;36371.605;    0.026;   63.633
 618.73;36261.121;    1.033;   62.574
 618.88;36230.770;    0.521;   65.214
 619.03;36214.441;   -0.281;   64.526
 619.18;36227.734;   -1.374;   66.157
 619.33;36253.957;   -0.338;   65.669
 619.48;36235.734;   -0.545;   66.319
 619.63;36239.496;    0.500;   66.555
 619.79;36304.000;    0.074;   66.148
 619.94;36336.418;    0.148;   64.983
 620.09;36325.406;    0.502;   65.490
 620.24;36252.328;    0.110;   63.574
 620.39;36186.551;   -0.821;   64.310
 620.54;36136.461;    0.252;   63.526
 620.69;36087.824;   -0.364;   64.071
 620.84;35948.988;   -0.424;   65.336
 621.00;35801.055;   -0.307;   65.452
 621.15;35653.473;   -0.071;   65.860
 621.30;35559.383;   -0.450;   66.700
 621.45;35463.055;   -0.662;   67.393
 621.60;35400.266;   -3.040;   68.652
 621.75;35317.734;   -2.500;   67.707
 621.90;35246.461;   -2.212;   66.405
 622.05;35211.449;   -1.167;   66.040
 622.21;35165.055;   -2.240;   66.290
 622.36;35060.813;   -2.586;   65.583
 622.51;34980.352;   -2.155;   64.271
 622.66;34849.910;   -1.167;   63.707
 622.81;34759.383;   -0.231;   64.443
 622.96;34698.879;   -1.090;   65.517
 623.11;34621.449;   -2.736;   66.767
 623.26;34552.988;    0.186;   66.602
 623.41;34555.734;    1.493;   67.671
 623.57;34459.098;    1.510;   68.012
 623.72;34422.152;    2.531;   67.881
 623.87;34325.516;    0.995;   67.774
 624.02;34202.109;    1.636;   66.633
 624.17;34063.363;    3.481;   65.450
 624.32;33912.570;    2.769;   65.443
 624.47;33747.230;    2.890;   64.945
 624.62;33671.207;    2.893;   65.214
 624.77;33556.945;    3.138;   64.964
 624.92;33487.867;    2.902;   64.824
 625.08;33448.813;    2.424;   65.355
 625.23;33457.055;    1.398;   65.405
 625.38;33473.297;    0.186;   65.221
 625.53;33515.781;   -0.002;   64.700
 625.68;33556.551;    0.176;   66.250
 625.83;33633.188;   -0.993;   66.690
 625.98;33661.473;   -0.310;   67.764
 626.13;33733.406;   -1.374;   68.090
 626.28;33740.199;   -1.595;   69.288
 626.43;33737.230;   -1.050;   70.129
 626.58;33646.352;   -0.338;   70.507
 626.74;33557.672;   -0.069;   70.500
 626.89;33388.637;   -0.157;   70.317
 627.04;33265.496;   -1.498;   69.033
 627.19;33053.430;    0.005;   68.983
 627.34;32919.164;   -0.783;   69.500
 627.49;32821.781;   -0.481;   69.060
 627.64;32843.121;   -0.974;   69.338
 627.79;32820.504;   -0.614;   67.107
 627.94;32963.430;   -0.164;   67.890
 628.09;33036.109;    0.910;   68.926
 628.24;33242.285;    1.293;   69.281
 628.39;33401.781;    2.310;   68.374
 628.55;33540.617;    1.817;   68.700
 628.70;33637.648;    1.576;   68.440
 628.85;33763.824;    1.007;   69.871
 629.00;33760.594;    0.871;   70.717
 629.15;33868.352;    1.312;   69.500
 629.30;33897.910;    0.433;   69.431
 629.45;33968.527;   -0.031;   70.052
 629.60;34040.504;    0.719;   69.183
 629.75;34192.879;    1.207;   69.557
 629.90;34373.297;    2.395;   70.079
 630.05;34638.770;    2.636;   69.910
 630.20;34833.605;    1.995;   70.783
 630.35;35084.176;    3.102;   71.586
 630.50;35285.297;    4.319;   71.298
 630.65;35506.461;    3.283;   73.138
 630.81;35598.836;    2.729;   73.688
 630.96;35748.133;    3.121;   73.005
 631.11;35843.625;    3.881;   71.679
 631.26;36004.395;    2.998;   71.995
 631.41;36103.273;    2.329;   71.583
 631.56;36288.484;    0.331;   72.195
 631.71;36462.746;    0.548;   71.736
 631.86;36703.164;    0.179;   72.405
 632.01;36826.309;   -1.833;   72.983
 632.16;36898.813;   -2.526;   75.786
 632.31;36776.285;   -1.462;   75.774
 632.46;36532.922;   -1.260;   76.386
 632.61;36103.582;   -0.614;   76.812
 632.76;35677.406;   -0.183;   77.271
 632.91;35127.449;    0.005;   76.364
 633.06;34600.219;   -0.269;   78.014
 633.21;34010.660;    0.024;   75.612
 633.36;33595.605;   -0.240;   75.881
 633.51;33269.121;   -0.262;   74.831
 633.67;33081.320;    0.379;   75.186
 633.82;32902.309;    0.310;   74.850
 633.97;32826.242;    1.312;   75.776
 634.12;32759.318;    2.938;   73.974
 634.27;32814.418;    2.293;   75.519
 634.42;32834.395;    3.519;   75.879
 634.57;32868.266;    2.788;   77.481
 634.72;32837.121;    2.843;   77.040
 634.87;32797.625;    1.731;   77.710
 635.02;32668.109;    0.548;   76.745
 635.17;32574.242;    0.340;   77.090
 635.32;32425.428;    0.710;   76.126
 635.47;32341.012;    0.074;   76.757
 635.62;32234.309;    1.014;   76.193
 635.77;32227.604;    1.798;   78.033
 635.92;32191.318;    1.700;   77.488
 636.07;32265.582;    0.979;   78.471
 636.22;32324.418;    0.976;   78.831
 636.37;32445.627;    0.426;   79.652
 636.52;32474.396;   -0.786;   79.174
 636.67;32573.846;   -1.088;   81.167
 636.82;32606.045;   -2.700;   79.850
 636.97;32690.682;   -1.202;   80.262
 637.12;32658.045;    0.214;   80.212
 637.27;32688.615;    0.245;   79.881
 637.42;32659.451;    0.519;   80.460
 637.57;32679.385;    1.245;   80.938
 637.72;32657.164;    2.100;   79.479
 637.87;32655.604;    2.369;   80.062
 638.02;32615.012;    2.052;   81.107
 638.17;32598.418;    2.131;   81.633
 638.32;32520.373;    2.224;   82.326
 638.47;32452.000;    1.874;   83.900
 638.62;32362.088;    2.224;   83.364
 638.77;32264.045;    2.064;   83.462
 638.93;32126.924;    2.662;   82.679
 639.08;31983.824;    2.321;   81.052
 639.23;31905.385;    1.767;   82.040
 639.38;31832.045;    0.198;   82.490
 639.53;31745.121;   -0.024;   80.840
 639.68;31692.791;   -1.336;   82.652
 639.83;31654.088;   -2.538;   84.783
 639.98;31618.461;   -2.393;   84.995
 640.13;31573.428;   -1.576;   87.431
 640.28;31563.648;   -1.850;   87.271
 640.43;31473.340;   -1.157;   88.698
 640.58;31430.330;   -1.640;   89.900
 640.73;31352.637;   -1.329;   89.364
 640.88;31312.615;   -2.040;   90.024
 641.03;31290.264;   -1.748;   91.307
 641.18;31283.604;   -2.050;   90.871
 641.33;31267.803;   -0.986;   90.155
 641.48;31339.691;   -1.564;   89.452
 641.63;31369.428;   -0.605;   90.260
 641.78;31437.363;   -0.698;   91.300
 641.93;31468.988;    0.233;   90.412
 642.08;31536.748;   -0.526;   91.033
 642.23;31586.924;    0.033;   91.879
 642.38;31580.309;   -1.250;   94.329
 642.53;31503.318;   -0.710;   95.040
 642.67;31466.506;   -0.383;   94.519
 642.82;31415.846;    0.995;   94.393
 642.97;31380.176;    1.864;   95.929
 643.12;31312.813;    1.871;   97.679
 643.27;31312.264;    0.179;   98.786
 643.42;31254.309;    0.681;   98.745
 643.57;31259.428;    0.474;   99.757
 643.72;31266.924;    1.452;  101.098
 643.87;31266.682;   -0.898;  102.700
 644.02;31228.594;   -2.900;  101.926
 644.17;31182.021;   -3.631;  101.919
 644.32;31042.221;   -3.557;  101.945
 644.47;30958.637;   -3.183;  103.319
 644.62;30881.604;   -3.281;  103.050
 644.77;30809.363;   -5.345;  105.110
 644.92;30683.758;   -2.148;  106.431
 645.07;30548.967;   -1.345;  108.129
 645.22;30446.133;   -0.395;  108.936
 645.37;30372.264;   -0.317;  111.700
 645.52;30332.285;   -0.062;  111.745
 645.67;30250.242;    0.198;  115.529
 645.82;30163.715;    2.271;  116.440
 645.97;30126.945;    1.007;  118.271
 646.12;30092.900;    0.738;  120.926
 646.27;30053.627;    0.636;  123.224
 646.42;30018.615;    1.100;  123.621
 646.57;29996.572;   -0.031;  126.529
 646.72;29933.033;   -0.871;  128.421
 646.87;29869.803;   -1.974;  130.024
 647.02;29768.373;   -0.976;  132.040
 647.17;29739.076;   -0.460;  135.052
 647.32;29707.451;   -1.157;  136.955
 647.47;29702.154;   -2.317;  140.595
 647.62;29672.594;   -2.005;  143.012
 647.77;29664.221;   -1.936;  144.233
 647.92;29650.660;   -2.262;  146.460
 648.06;29684.615;   -3.612;  148.167
 648.21;29553.252;   -2.500;  149.107
 648.36;29407.297;   -1.640;  152.357
 648.51;29162.924;   -0.500;  153.802
 648.66;28955.340;   -0.221;  157.052
 648.81;28726.000;    2.576;  160.660
 648.96;28562.373;    2.026;  163.738
 649.11;28373.824;    2.167;  167.279
 649.26;28379.779;    1.045;  169.757
 649.41;28479.891;    1.367;  171.450
 649.56;28707.121;    0.769;  175.348
 649.71;28880.418;    0.367;  177.917
 649.86;29153.582;   -2.593;  180.986
 650.01;29334.439;   -1.795;  184.679
 650.16;29518.725;   -1.993;  187.052
 650.31;29579.627;   -0.557;  190.336
 650.46;29502.021;   -1.355;  196.919
 650.61;29384.242;    0.690;  200.926
 650.75;29263.033;    0.398;  205.710
 650.90;29078.439;    1.338;  209.402
 651.05;28921.670;    1.207;  213.538
 651.20;28774.527;    1.614;  220.040
 651.35;28688.176;    0.121;  226.014
 651.50;28656.945;   -0.205;  229.202
 651.65;28684.748;   -1.164;  235.195
 651.80;28751.846;   -0.243;  240.374
 651.95;28816.572;    0.312;  246.910
 652.10;28838.133;    0.624;  252.050
 652.25;28861.627;   -0.031;  256.633
 652.40;28870.572;    0.643;  262.545
 652.55;28916.660;    1.921;  268.100
 652.70;28879.012;    1.043;  273.307
 652.85;28823.648;    1.017;  279.833
 652.99;28765.691;    1.214;  285.840
 653.14;28755.516;    1.169;  292.157
 653.29;28674.264;    1.719;  298.717
 653.44;28583.121;    0.864;  305.538
 653.59;28426.615;   -0.100;  311.983
 653.74;28272.000;   -0.107;  320.052
 653.89;28096.461;   -0.452;  327.431
 654.04;27943.648;   -0.269;  335.586
 654.19;27722.176;    0.957;  347.079
 654.34;27548.484;    0.474;  358.624
 654.49;27317.691;    0.757;  380.602
 654.64;27085.934;    0.779;  478.024
 654.78;26771.275;    1.481;  713.955
 654.93;26269.715;    0.979; 1035.481
 655.08;25628.857;    1.110; 1397.202
 655.23;24992.748;    0.293; 1767.281
 655.38;24317.912;    1.414; 2141.240
 655.53;23747.297;    1.169; 2507.081
 655.68;23193.604;    1.681; 2764.060
 655.83;22791.473;    1.293; 2755.833
 655.98;22742.527;    2.405; 2540.402
 656.13;22986.682;    1.102; 2230.490
 656.28;23393.252;    0.138; 1893.555
 656.42;23912.439;   -0.650; 1547.538
 656.57;24424.330;    0.814; 1195.602
 656.72;24999.209;    0.931;  877.357
 656.87;25533.473;    1.652;  684.345
 657.02;26006.461;    0.426;  615.919
 657.17;26271.846;    0.233;  600.926
 657.32;26456.045;    0.131;  605.681
 657.47;26596.594;   -0.110;  616.431
 657.62;26735.385;   -1.974;  631.300
 657.76;26792.154;   -2.700;  647.145
 657.91;26853.363;   -2.955;  664.281
 658.06;26783.188;   -2.271;  680.574
 658.21;26815.297;   -0.517;  697.957
 658.36;26790.221;    0.376;  713.650
 658.51;26758.682;    0.340;  729.871
 658.66;26709.955;    1.805;  747.583
 658.81;26704.791;    1.626;  768.376
 658.96;26664.285;    0.110;  787.498
 659.10;26729.715;   -0.440;  806.957
 659.25;26726.396;   -0.729;  827.898
 659.40;26795.297;   -0.440;  850.690
 659.55;26840.066;   -0.424;  873.231
 659.70;26923.691;   -1.450;  897.433
 659.85;26955.891;   -1.881;  919.040
 660.00;27009.979;   -0.374;  945.271
 660.15;27009.779;    1.424;  970.536
 660.30;27078.373;    0.150;  997.938
 660.44;27085.076;   -1.205; 1024.317
 660.59;27105.627;   -0.698; 1053.595
 660.74;27107.188;    0.100; 1082.421
 660.89;27129.934;    2.855; 1115.614
 661.04;27153.209;    2.186; 1144.641
 661.19;27207.561;    0.807; 1179.586
 661.34;27206.660;    1.167; 1213.260
 661.49;27210.154;    2.236; 1248.919
 661.63;27239.363;    2.643; 1286.098
 661.78;27240.439;    2.474; 1323.652
 661.93;27211.188;    0.871; 1360.345
 662.08;27199.691;    0.826; 1402.005
 662.23;27114.088;    2.195; 1439.879
 662.38;27054.109;    3.207; 1480.843
 662.53;26982.439;    2.786; 1519.974
 662.67;26918.900;    4.217; 1563.852
 662.82;26855.100;    4.233; 1605.621
 662.97;26815.385;    3.464; 1651.976
 663.12;26755.494;    5.586; 1695.174
 663.27;26769.494;    4.683; 1744.910
 663.42;26753.297;    3.871; 1792.183
 663.57;26797.582;    2.950; 1846.490
 663.71;26794.967;    1.452; 1893.574
 663.86;26826.418;    1.626; 1948.262
 664.01;26894.748;    1.433; 2001.907
 664.16;26971.473;   -0.060; 2059.862
 664.31;27035.012;    0.024; 2116.888
 664.46;27096.000;    0.226; 2179.433
 664.61;27097.428;    0.948; 2236.421
 664.75;27173.979;   -0.469; 2305.224
 664.90;27160.682;   -1.833; 2365.136
 665.05;27123.340;   -1.212; 2427.919
 665.20;27074.352;   -2.186; 2492.355
 665.35;27013.539;   -2.545; 2556.833
 665.50;26929.516;   -3.862; 2613.631
 665.64;26899.824;   -4.012; 2680.195
 665.79;26798.660;   -3.148; 2735.240
 665.94;26784.352;   -4.183; 2802.386
 666.09;26777.561;   -4.281; 2866.583
 666.24;26814.988;   -4.583; 2937.633
 666.39;26796.154;   -4.862; 3004.764
 666.53;26847.824;   -3.612; 3084.271
 666.68;26845.297;   -3.595; 3159.764
 666.83;26856.660;   -4.012; 3246.338
 666.98;26829.648;   -0.500; 3328.726
 667.13;26785.406;   -0.621; 3411.443
 667.28;26702.396;    1.605; 3490.898
 667.42;26697.846;    1.179; 3579.671
 667.57;26678.045;    0.757; 3665.659
 667.72;26714.154;    0.693; 3754.529
 667.87;26730.660;    2.129; 3837.536
 668.02;26783.076;    0.379; 3929.738
 668.17;26811.539;    0.405; 4020.355
 668.31;26849.494;   -1.031; 4116.062
 668.46;26839.979;   -0.500; 4211.964
 668.61;26815.297;   -1.640; 4311.681
 668.76;26733.779;   -1.881; 4409.688
 668.91;26697.275;   -2.279; 4522.081
 669.06;26598.439;   -1.805; 4623.764
 669.20;26539.076;   -1.802; 4739.310
 669.35;26454.396;   -1.824; 4849.269
 669.50;26431.033;   -1.479; 4963.614
 669.65;26358.221;    0.224; 5072.421
 669.80;26362.285;    1.255; 5191.500
 669.94;26271.846;    0.538; 5292.383
 670.09;26261.934;    0.921; 5410.652
 670.24;26208.813;    1.671; 5517.641
 670.39;26182.373;    1.960; 5646.652
 670.54;26094.572;    1.890; 5777.755
 670.69;26045.230;    0.826; 5927.624
 670.83;25929.604;    1.871; 6080.840
 670.98;25905.582;    1.779; 6259.300
 671.13;25798.967;    0.910; 6428.764
 671.28;25737.055;    0.064; 6626.519
 671.43;25675.934;   -0.576; 6812.193
 671.57;25657.891;   -1.507; 6997.138
 671.72;25671.055;   -0.871; 7159.041
 671.87;25690.594;   -2.479; 7309.462
 672.02;25663.494;   -1.167; 7433.174
 672.17;25703.648;   -0.536; 7561.128
 672.31;25697.912;    0.281; 7653.345
 672.46;25717.100;    1.074; 7729.919
 672.61;25705.473;    3.319; 7800.326
 672.76;25686.988;    3.083; 7890.586
 672.91;25644.857;    2.519; 7985.374
 673.05;25666.900;    1.188; 8109.310
 673.20;25622.924;    0.700; 8223.697
 673.35;25612.396;   -0.450; 8364.967
 673.50;25570.660;   -0.205; 8522.374
 673.65;25518.461;   -1.402; 8687.853
 673.79;25443.715;   -1.224; 8840.717
 673.94;25413.318;   -0.136; 9002.100
 674.09;25314.352;    0.119; 9136.983
 674.24;25244.703;   -0.298; 9285.853
 674.38;25159.230;    1.443; 9421.679
 674.53;25106.330;    0.969; 9569.719
 674.68;25039.803;    0.852; 9710.526
 674.83;25032.088;    0.712; 9885.338
 674.98;24959.803;    0.186;10040.735
 675.12;24987.912;   -0.155;10240.100
 675.27;24982.527;    0.881;10419.230
 675.42;24989.539;   -0.317;10609.634
 675.57;24944.594;   -0.033;10778.793
 675.71;24922.154;   -0.821;10957.862
 675.86;24845.473;    0.719;11113.555
 676.01;24814.813;    1.131;11283.596
 676.16;24706.572;    0.681;11425.821
 676.31;24641.758;   -0.050;11590.995
 676.45;24558.615;   -1.052;11744.479
 676.60;24515.164;   -0.850;11922.186
 676.75;24476.066;    0.481;12112.574
 676.90;24423.385;   -1.717;12316.604
 677.04;24390.879;   -1.605;12536.098
 677.19;24370.813;   -0.564;12769.985
 677.34;24348.506;    0.386;13011.260
 677.49;24329.230;    2.731;13261.490
 677.63;24269.867;    2.262;13482.184
 677.78;24244.572;    1.588;13696.558
 677.93;24186.660;    2.357;13873.659
 678.08;24108.615;    1.607;14033.414
 678.23;24017.252;    1.100;14189.888
 678.37;23934.021;    0.302;14357.710
 678.52;23829.428;   -0.005;14526.250
 678.67;23748.396;    0.055;14728.262
 678.82;23640.330;    0.271;14924.583
 678.96;23545.846;    0.760;15140.767
 679.11;23463.627;    0.995;15367.697
 679.26;23396.045;    0.988;15594.843
 679.41;23280.637;    1.567;15763.545
 679.55;23226.506;    0.293;15934.195
 679.70;23133.561;    1.119;16058.621
 679.85;23034.418;   -1.088;16165.995
 680.00;22971.979;   -0.481;16277.326
 680.14;22894.988;   -1.526;16368.252
 680.29;22806.309;   -0.452;16476.346
 680.44;22798.900;   -0.631;16655.004
 680.59;22720.945;   -0.290;16812.449
 680.73;22677.715;   -1.812;16995.814
 680.88;22651.188;    1.376;17218.203
 681.03;22640.924;    0.407;17457.271
 681.18;22610.703;    2.071;17696.631
 681.32;22609.012;    1.064;17917.652
 681.47;22548.682;   -0.443;18072.889
 681.62;22514.330;   -2.221;18215.309
 681.76;22514.924;    0.567;18367.641
 681.91;22480.748;    8.093;18481.119
 682.06;22436.109;    8.052;18589.051
 682.21;22405.363;    7.940;18721.395
 682.35;22334.924;    8.719;18853.992
 682.50;22301.055;   10.731;19053.338
 682.65;22270.221;   12.186;19313.383
 682.80;22211.340;   10.198;19581.615
 682.94;22121.516;    1.129;19861.346
 683.09;22031.297;    0.740;20185.775
 683.24;21917.076;    0.110;20500.031
 683.39;21872.484;   -0.069;20862.033
 683.53;21788.813;   -1.490;21168.564
 683.68;21738.988;   -0.402;21469.225
 683.83;21689.121;   -0.290;21764.926
 683.97;21706.330;   -0.088;22076.109
 684.12;21722.484;    0.424;22360.316
 684.27;21780.748;    0.674;22668.195
 684.42;21806.088;    0.233;22954.813
 684.56;21811.736;   -0.917;23275.861
 684.71;21796.418;   -1.586;23572.660
 684.86;21827.076;   -1.479;23914.033
 685.00;21796.857;   -1.471;24213.041
 685.15;21772.045;   -1.840;24519.148
 685.30;21683.494;   -1.176;24755.660
 685.45;21496.660;   -0.202;24962.672
 685.59;21214.000;    1.690;25108.641
 685.74;20795.385;    0.874;25228.947
 685.89;20222.703;    1.586;25301.260
 686.03;19608.924;    0.664;25447.768
 686.18;18876.945;    2.519;25566.002
 686.33;18138.770;    1.702;25762.996
 686.48;17507.934;    1.052;25998.936
 686.62;17073.539;    0.893;26265.186
 686.77;16864.021;    2.462;26540.982
 686.92;16875.473;    1.502;26843.033
 687.06;17041.912;    2.671;27076.518
 687.21;17388.660;   -0.564;27318.805
 687.36;17832.900;   -1.167;27474.270
 687.50;18284.703;   -1.307;27583.738
 687.65;18670.879;   -0.071;27695.488
 687.80;18993.363;   -0.279;27852.424
 687.95;19181.164;   -0.643;28019.965
 688.09;19277.406;   -0.479;28217.768
 688.24;19265.824;    0.595;28395.117
 688.39;19247.955;    0.998;28671.947
 688.53;19180.242;    0.633;28986.926
 688.68;19166.418;   -0.221;29350.139
 688.83;19141.691;   -0.071;29712.221
 688.97;19159.209;    0.036;30038.252
 689.12;19203.406;    0.319;30320.469
 689.27;19300.527;   -0.164;30620.156
 689.41;19400.330;    0.538;30886.678
 689.56;19553.715;    1.540;31114.480
 689.71;19671.451;    1.052;31308.107
 689.86;19800.879;   -0.374;31505.424
 690.00;19895.363;   -0.605;31716.488
 690.15;20028.133;   -1.793;32071.480
 690.30;20141.385;   -1.462;32429.555
 690.44;20239.385;   -1.783;32849.871
 690.59;20290.924;   -2.243;33236.715
 690.74;20377.670;   -1.802;33698.977
 690.88;20448.725;   -1.595;34139.355
 691.03;20518.021;   -1.774;34518.262
 691.18;20554.660;   -0.510;34762.574
 691.32;20621.406;    0.626;35009.289
 691.47;20671.582;   -0.033;35156.887
 691.62;20744.748;   -0.231;35375.367
 691.76;20757.736;   -0.481;35506.574
 691.91;20779.076;   -0.793;35656.156
 692.06;20788.594;    0.243;35846.965
 692.20;20837.627;   -0.307;36167.309
 692.35;20845.561;    0.148;36468.125
 692.50;20867.076;    0.540;36813.387
 692.64;20830.703;    0.710;37060.449
 692.79;20793.582;    0.407;37294.188
 692.94;20776.682;    2.919;37580.336
 693.08;20780.660;    2.807;37846.559
 693.23;20728.945;    3.062;37930.688
 693.38;20692.572;    2.607;38003.559
 693.52;20637.824;    3.967;38029.270
 693.67;20640.352;    3.055;38105.813
 693.82;20660.021;    3.805;38227.648
 693.96;20681.055;    2.617;38319.758
 694.11;20719.143;    3.129;38475.117
 694.26;20772.660;    2.740;38784.395
 694.40;20819.803;    2.871;39149.223
 694.55;20899.736;    1.969;39556.730
 694.70;20963.451;    2.938;39980.879
 694.84;21031.033;    2.169;40373.918
 694.99;21073.297;    1.414;40682.164
 695.13;21127.209;   -0.412;40914.176
 695.28;21178.396;    0.233;40993.793
 695.43;21267.516;   -1.079;41015.559
 695.57;21364.373;   -1.976;41037.906
 695.72;21462.549;   -2.393;41079.891
 695.87;21578.439;   -1.890;41255.680
 696.01;21734.330;   -1.726;41618.586
 696.16;21857.779;   -0.310;42108.297
 696.31;21956.967;   -0.460;42723.984
 696.45;21999.451;    0.795;43389.582
 696.60;21989.539;    0.417;44091.320
 696.75;21943.715;    0.519;44703.051
 696.89;21908.615;    0.969;45191.652
 697.04;21809.164;    1.214;45408.480
 697.18;21733.100;    1.740;45500.652
 697.33;21647.275;    1.452;45499.516
 697.48;21581.188;    1.055;45443.613
 697.62;21551.275;    2.195;45319.633
 697.77;21567.121;    3.169;45271.270
 697.92;21527.143;    2.614;45202.688
 698.06;21518.154;    2.626;45337.289
 698.21;21489.473;    2.395;45474.051
 698.35;21490.461;    2.217;45636.148
 698.50;21500.594;    2.300;45812.859
 698.65;21495.912;    2.350;46001.082
 698.79;21472.197;    2.081;46151.336
 698.94;21486.813;    2.198;46324.309
 699.09;21445.779;    2.357;46340.441
 699.23;21426.197;    0.979;46393.137
 699.38;21369.033;    1.310;46421.137
 699.52;21316.791;    1.055;46486.082
 699.67;21269.428;    1.167;46564.773
 699.82;21243.867;    0.140;46699.254
 699.96;21195.318;    0.881;46775.633
 700.11;21201.406;    0.921;46948.355
 700.25;21162.309;    2.214;47053.793
 700.40;21182.066;    2.588;47225.930
 700.55;21169.428;    3.614;47366.879
 700.69;21176.527;    4.198;47526.949
 700.84;21160.066;    5.748;47641.715
 700.99;21151.033;    4.436;47842.234
 701.13;21122.176;    3.205;48036.242
 701.28;21113.318;    2.169;48308.023
 701.42;21093.648;    1.929;48571.270
 701.57;21105.188;    1.379;48884.539
 701.72;21082.527;    1.405;49143.527
 701.86;21107.516;    0.455;49447.109
 702.01;21136.682;    0.529;49693.277
 702.15;21224.221;    1.940;49970.746
 702.30;21288.857;    1.748;50145.309
 702.45;21383.252;    1.207;50332.367
 702.59;21454.264;    2.129;50419.547
 702.74;21505.494;    2.074;50413.996
 702.88;21551.494;    2.043;50421.344
 703.03;21603.121;    1.540;50443.938
 703.18;21584.725;    2.376;50368.184
 703.32;21630.285;    2.064;50427.844
 703.47;21669.955;    1.881;50493.727
 703.61;21723.691;    0.893;50587.215
 703.76;21808.637;    0.462;50796.660
 703.90;21850.461;    0.045;50917.957
 704.05;21859.803;    1.481;50998.793
 704.20;21908.133;   -0.555;51135.719
 704.34;21903.451;    0.186;51214.105
 704.49;21869.539;   -0.021;51234.492
 704.63;21809.955;    0.014;51198.945
 704.78;21752.836;   -0.326;51170.730
 704.93;21703.012;   -0.862;51148.535
 705.07;21697.143;   -0.679;51222.500
 705.22;21669.604;   -1.033;51313.223
 705.36;21655.340;   -0.479;51444.633
 705.51;21638.703;    0.195;51661.449
 705.65;21635.121;   -1.202;51993.156
 705.80;21638.484;   -1.633;52390.813
 705.95;21654.066;   -0.726;52924.215
 706.09;21647.846;   -0.710;53427.059
 706.24;21658.242;   -0.117;54000.035
 706.38;21651.582;    0.824;54523.926
 706.53;21701.979;    0.960;55078.281
 706.67;21715.539;    2.005;55438.535
 706.82;21747.955;    2.702;55725.613
 706.97;21772.637;    3.338;55854.918
 707.11;21783.912;    1.636;55958.691
 707.26;21770.045;    1.652;55911.516
 707.40;21772.133;    0.321;55829.242
 707.55;21678.836;    0.929;55500.715
 707.69;21676.791;    1.360;55397.023
 707.84;21611.188;    0.852;55233.277
 707.99;21551.164;   -0.221;55128.832
 708.13;21492.945;    0.976;54967.375
 708.28;21452.748;    0.779;54830.043
 708.42;21421.691;    0.014;54692.516
 708.57;21463.385;   -0.040;54728.348
 708.71;21420.594;   -0.748;54636.867
 708.86;21456.133;   -0.955;54648.492
 709.00;21461.604;   -1.614;54596.547
 709.15;21512.000;   -1.602;54662.090
 709.30;21539.318;   -0.462;54739.031
 709.44;21554.945;    1.017;54845.215
 709.59;21536.988;    0.243;54983.563
 709.73;21564.133;   -0.088;55194.805
 709.88;21536.066;    1.271;55336.867
 710.02;21504.572;    1.236;55449.480
 710.17;21449.252;    2.310;55508.648
 710.31;21418.066;    1.112;55611.422
 710.46;21371.275;    0.386;55661.574
 710.60;21313.539;    0.407;55609.473
 710.75;21253.561;   -0.071;55524.070
 710.90;21180.748;   -0.650;55342.805
 711.04;21149.033;   -0.081;55264.289
 711.19;21108.572;   -1.164;55134.672
 711.33;21063.582;   -0.690;54950.012
 711.48;21045.803;   -1.221;54856.109
 711.62;21007.055;   -1.205;54756.965
 711.77;20959.121;   -0.879;54696.004
 711.91;20923.230;   -1.824;54723.020
 712.06;20866.813;   -3.155;54677.414
 712.20;20829.385;   -4.005;54750.602
 712.35;20780.396;   -4.298;54908.395
 712.49;20735.803;   -3.557;55040.813
 712.64;20703.648;   -3.840;55183.594
 712.78;20680.945;   -1.710;55293.508
 712.93;20685.494;   -0.479;55454.844
 713.07;20692.021;    1.538;55720.973
 713.22;20654.154;    1.721;55884.301
 713.37;20647.715;    2.424;56048.363
 713.51;20582.021;    2.531;56153.156
 713.66;20512.506;    3.281;56239.090
 713.80;20435.736;    1.969;56330.883
 713.95;20352.197;    1.710;56346.879
 714.09;20253.230;    0.321;56251.730
 714.24;20194.352;    0.729;56195.328
 714.38;20110.418;    0.512;56021.117
 714.53;20049.473;    0.652;55831.375
 714.67;20026.461;    0.407;55661.023
 714.82;20010.088;    0.386;55453.840
 714.96;19974.461;    0.026;55289.004
 715.11;19918.615;    1.643;55150.117
 715.25;19803.428;    1.455;54905.977
 715.40;19638.133;    1.586;54668.137
 715.54;19460.572;    1.845;54478.777
 715.69;19210.967;    2.062;54260.984
 715.83;18897.012;    0.607;54035.082
 715.98;18547.582;    0.595;53820.137
 716.12;18197.803;   -0.707;53633.824
 716.27;17813.033;   -0.652;53423.953
 716.41;17468.133;   -0.688;53296.797
 716.56;17136.637;   -0.405;53148.090
 716.70;16864.221;   -1.440;53084.813
 716.85;16614.703;    0.319;52983.250
 716.99;16411.385;    0.274;52955.738
 717.14;16219.846;    1.119;52919.496
 717.28;16052.923;    0.264;52977.453
 717.43;15898.571;    0.690;53020.852
 717.57;15746.638;   -0.917;53004.766
 717.72;15580.242;    0.262;52985.051
 717.86;15412.923;   -0.307;52997.852
 718.01;15221.956;    0.662;52921.773
 718.15;15056.923;    1.007;52807.176
 718.30;14963.230;    1.824;52682.938
 718.44;14887.736;    1.436;52469.148
 718.59;14823.626;    1.614;52321.840
 718.73;14755.341;    1.112;52156.289
 718.88;14709.912;    1.014;51981.574
 719.02;14698.330;   -0.974;51771.652
 719.17;14688.418;   -1.043;51547.867
 719.31;14660.659;   -0.917;51301.910
 719.46;14613.209;   -1.424;51076.363
 719.60;14623.077;    0.150;50917.508
 719.74;14653.912;   -1.005;50659.355
 719.89;14759.868;   -0.717;50458.805
 720.03;14911.318;    0.843;50270.879
 720.18;15121.890;   -0.231;50142.168
 720.32;15348.330;   -0.576;50013.582
 720.47;15637.978;   -0.717;49993.996
 720.61;15905.341;   -1.186;49854.699
 720.76;16170.989;   -0.155;49783.797
 720.90;16379.890;   -0.386;49654.898
 721.05;16536.484;   -0.783;49526.480
 721.19;16590.836;    0.757;49352.395
 721.34;16636.396;    1.379;49239.824
 721.48;16614.176;    2.490;49008.992
 721.63;16562.418;    1.045;48813.785
 721.77;16483.891;    1.871;48589.355
 721.92;16366.901;    2.664;48443.852
 722.06;16184.594;    2.205;48254.688
 722.20;16014.154;    0.388;48107.406
 722.35;15805.209;    0.614;47913.336
 722.49;15574.286;    0.626;47724.387
 722.64;15328.374;    2.548;47580.105
 722.78;15082.594;    3.169;47548.984
 722.93;14839.494;    2.290;47456.289
 723.07;14669.758;    3.274;47469.824
 723.22;14534.659;    4.214;47404.594
 723.36;14474.945;    3.740;47403.613
 723.51;14426.176;    3.595;47377.344
 723.65;14410.022;    1.826;47343.176
 723.79;14393.033;    0.776;47189.820
 723.94;14404.879;    0.712;47100.645
 724.08;14404.945;    0.871;46957.395
 724.23;14410.550;    0.750;46912.645
 724.37;14380.330;    0.805;46852.449
 724.52;14378.989;   -0.431;46903.738
 724.66;14368.594;    0.281;47002.395
 724.81;14377.450;   -0.021;47174.910
 724.95;14383.230;    0.700;47258.516
 725.09;14416.264;   -0.117;47392.387
 725.24;14440.330;   -0.014;47484.746
 725.38;14465.582;    0.007;47517.559
 725.53;14457.253;    1.100;47442.680
 725.67;14478.374;    1.540;47355.434
 725.82;14497.912;    2.633;47198.918
 725.96;14536.879;    1.721;47129.082
 726.11;14536.198;    1.452;46967.020
 726.25;14543.253;    1.702;46847.414
 726.39;14509.692;    1.786;46704.953
 726.54;14479.077;    2.350;46619.871
 726.68;14389.121;    1.843;46424.801
 726.83;14316.000;    0.302;46374.203
 726.97;14229.209;    2.157;46242.184
 727.12;14168.527;    2.807;46175.520
 727.26;14138.747;    3.538;46125.031
 727.40;14176.747;    2.588;46179.035
 727.55;14230.747;    1.148;46236.191
 727.69;14307.473;    2.140;46379.891
 727.84;14328.682;    2.243;46368.395
 727.98;14336.176;   -0.336;46443.215
 728.12;14313.121;   -0.624;46510.098
 728.27;14245.274;   -0.764;46522.063
 728.41;14146.220;    1.300;46459.105
 728.56;14088.308;    0.417;46496.949
 728.70;14025.341;   -1.138;46424.660
 728.85;14047.121;   -1.040;46462.188
 728.99;14094.615;    0.671;46472.535
 729.13;14168.703;   -0.240;46485.148
 729.28;14284.154;   -0.795;46540.242
 729.42;14366.506;   -3.764;46586.566
 729.57;14384.770;   -1.357;46525.223
 729.71;14401.011;   -0.593;46601.672
 729.85;14376.110;    0.129;46667.098
 730.00;14349.450;    0.121;46766.414
 730.14;14337.165;    2.490;46864.867
 730.29;14307.604;    1.169;46965.984
 730.43;14282.088;    2.090;47068.945
 730.57;14298.989;    1.302;47286.746
 730.72;14322.352;    0.548;47389.906
 730.86;14374.022;    0.302;47395.863
 731.01;14441.868;    0.738;47290.887
 731.15;14520.835;   -1.574;47161.594
 731.29;14575.626;    0.538;46931.223
 731.44;14680.615;    2.464;46760.461
 731.58;14767.846;    2.357;46398.383
 731.73;14898.594;    3.369;46167.109
 731.87;14996.550;    2.910;46004.031
 732.01;15060.791;    1.588;45889.035
 732.16;15077.077;    2.090;45793.020
 732.30;15101.802;    1.026;45749.168
 732.45;15118.483;   -0.690;45719.488
 732.59;15163.473;   -0.060;45829.215
 732.73;15176.945;   -0.062;45850.117
 732.88;15198.813;   -0.736;45857.395
 733.02;15242.088;    0.614;45889.164
 733.16;15301.934;   -0.183;45976.832
 733.31;15377.297;   -0.643;46166.191
 733.45;15431.648;    0.045;46361.441
 733.60;15447.802;    0.195;46483.621
 733.74;15428.044;   -0.593;46544.051
 733.88;15407.450;   -0.024;46575.441
 734.03;15357.494;   -0.917;46528.367
 734.17;15298.747;    0.900;46354.699
 734.31;15211.253;    2.502;46038.645
 734.46;15130.923;    2.490;45613.289
 734.60;15067.561;    1.750;45176.672
 734.75;15020.330;    1.814;44801.660
 734.89;14974.242;    1.826;44511.129
 735.03;14934.791;    1.900;44292.535
 735.18;14908.352;    1.607;44186.148
 735.32;14873.912;    1.138;44105.801
 735.46;14860.659;    0.569;44095.539
 735.61;14810.000;    0.100;44074.852
 735.75;14792.791;    0.226;44102.613
 735.90;14779.406;    0.814;44079.879
 736.04;14778.066;   -0.164;44057.938
 736.18;14765.253;   -0.214;43934.699
 736.33;14789.318;   -1.431;43849.508
 736.47;14791.011;   -0.700;43745.137
 736.61;14846.418;   -0.002;43655.016
 736.76;14867.450;    0.710;43480.258
 736.90;14883.429;   -0.879;43277.340
 737.04;14878.571;    0.014;43007.801
 737.19;14872.176;   -0.831;42752.434
 737.33;14842.527;   -0.538;42453.773
 737.47;14793.450;   -1.631;42137.871
 737.62;14703.187;   -1.290;41840.898
 737.76;14610.242;   -1.012;41621.453
 737.90;14503.582;   -0.719;41450.410
 738.05;14415.385;   -0.183;41416.043
 738.19;14336.770;   -0.281;41475.496
 738.34;14284.835;    0.169;41659.148
 738.48;14226.923;    1.490;41853.984
 738.62;14214.594;    0.226;42091.844
 738.77;14222.352;   -0.852;42298.594
 738.91;14260.571;    0.293;42453.262
 739.05;14290.791;    0.319;42450.422
 739.20;14329.582;    1.283;42307.035
 739.34;14316.198;    2.538;41932.309
 739.48;14354.066;    1.064;41545.203
 739.63;14335.318;    2.033;41063.840
 739.77;14327.209;    2.131;40595.672
 739.91;14280.989;    1.776;40106.602
 740.06;14228.439;    0.569;39691.281
 740.20;14151.626;    0.233;39339.953
 740.34;14110.989;   -1.155;39119.348
 740.49;14030.396;    1.014;38888.898
 740.63;13995.604;    0.160;38762.289
 740.77;13939.011;    1.148;38589.527
 740.92;13910.066;    1.560;38484.289
 741.06;13877.736;    1.871;38345.926
 741.20;13878.989;    1.740;38259.547
 741.35;13880.198;    0.995;38214.031
 741.49;13886.330;   -0.498;38216.387
 741.63;13869.868;    0.929;38175.727
 741.78;13877.890;    0.102;38233.746
 741.92;13881.033;   -0.652;38257.887
 742.06;13927.473;   -0.145;38319.938
 742.20;13942.571;    1.490;38322.480
 742.35;13982.550;    2.150;38318.898
 742.49;14000.506;    2.281;38207.613
 742.63;14035.385;    1.045;38089.605
 742.78;14038.527;    0.690;37870.832
 742.92;14047.077;    0.969;37662.035
 743.06;14008.594;    0.976;37403.230
 743.21;13966.594;   -0.421;37161.578
 743.35;13894.264;   -0.214;36921.879
 743.49;13850.726;   -0.288;36820.539
 743.64;13768.110;    0.852;36651.527
 743.78;13725.187;    1.464;36609.938
 743.92;13655.099;    2.224;36524.832
 744.06;13630.550;    2.312;36512.234
 744.21;13597.912;    1.843;36468.410
 744.35;13597.978;    2.407;36452.004
 744.49;13601.165;    3.395;36379.574
 744.64;13625.582;    2.531;36347.129
 744.78;13610.264;    1.776;36196.430
 744.92;13617.890;    1.093;36116.016
 745.07;13584.110;    1.281;35981.012
 745.21;13586.066;    1.140;35905.977
 745.35;13539.274;   -0.148;35748.191
 745.49;13501.538;   -0.107;35618.965
 745.64;13444.154;   -0.529;35456.734
 745.78;13425.099;    0.331;35362.813
 745.92;13394.747;    0.262;35199.309
 746.07;13384.044;   -0.288;35085.633
 746.21;13360.022;    1.033;34990.707
 746.35;13357.450;    2.245;34926.871
 746.49;13336.286;    2.471;34859.363
 746.64;13340.879;    2.436;34867.652
 746.78;13297.780;    2.319;34792.328
 746.92;13268.483;    1.893;34781.730
 747.07;13225.429;    1.538;34697.801
 747.21;13207.165;   -0.402;34580.547
 747.35;13164.682;   -1.681;34408.164
 747.49;13130.418;   -2.555;34181.898
 747.64;13097.385;   -2.624;33925.973
 747.78;13102.506;   -2.907;33765.613
 747.92;13076.638;   -3.119;33560.012
 748.07;13062.726;   -2.488;33463.156
 748.21;12999.934;   -1.510;33365.297
 748.35;12967.517;   -1.050;33375.035
 748.49;12920.286;   -1.767;33443.660
 748.64;12888.967;   -1.155;33599.270
 748.78;12810.044;   -0.710;33671.699
 748.92;12780.967;    0.150;33851.109
 749.06;12747.626;   -0.176;33995.820
 749.21;12743.517;    0.664;34140.766
 749.35;12721.341;    0.471;34249.668
 749.49;12722.330;    0.969;34325.035
 749.64;12706.308;    2.214;34305.020
 749.78;12703.648;    2.188;34306.883
 749.92;12658.044;    2.690;34181.527
 750.06;12615.517;    3.150;33997.492
 750.21;12570.791;    2.738;33817.020
 750.35;12531.692;    3.750;33596.938
 750.49;12490.352;    3.252;33391.734
 750.63;12448.000;    1.607;33220.422
 750.78;12442.132;    0.824;33103.563
 750.92;12456.659;   -0.155;33052.035
 751.06;12467.187;   -0.233;33050.582
 751.20;12455.824;    0.217;33008.699
 751.35;12464.110;    0.062;32980.410
 751.49;12444.571;    0.626;32924.883
 751.63;12429.780;    1.014;32828.031
 751.77;12403.429;    1.283;32715.014
 751.92;12360.330;    0.681;32516.078
 752.06;12327.209;    0.474;32274.900
 752.20;12316.286;   -0.976;32085.230
 752.34;12295.692;   -2.450;31916.004
 752.49;12282.176;   -2.481;31761.955
 752.63;12282.506;   -2.860;31706.424
 752.77;12271.055;   -2.795;31661.555
 752.91;12287.253;   -2.621;31713.709
 753.05;12284.594;   -3.424;31774.250
 753.20;12273.011;   -3.460;31842.424
 753.34;12244.594;   -1.605;31835.002
 753.48;12248.220;   -2.764;31877.910
 753.62;12224.110;   -1.795;31811.373
 753.77;12211.165;   -1.574;31706.080
 753.91;12167.978;    0.462;31519.326
 754.05;12151.780;    1.236;31390.443
 754.19;12122.396;    1.567;31247.822
 754.34;12114.066;   -0.031;31212.709
 754.48;12060.550;    1.014;31118.660
 754.62;12039.033;    0.093;31130.891
 754.76;12014.352;    1.395;31165.412
 754.90;11994.066;    0.769;31251.225
 755.05;11951.802;    0.967;31281.793
 755.19;11933.846;    1.598;31302.148
 755.33;11913.912;    2.567;31312.145
 755.47;11906.066;    1.807;31335.699
 755.62;11856.110;    2.690;31304.535
 755.76;11824.659;    1.140;31327.566
 755.90;11809.077;    1.052;31366.422
 756.04;11796.088;    0.455;31422.004
 756.18;11768.330;    0.443;31496.203
 756.33;11737.406;   -0.488;31615.814
 756.47;11718.879;    0.833;31771.479
 756.61;11727.824;   -0.488;31968.443
 756.75;11712.813;   -0.300;32077.365
 756.90;11709.494;   -1.174;32193.996
 757.04;11689.648;   -1.300;32293.193
 757.18;11672.264;   -1.202;32390.738
 757.32;11639.187;   -0.148;32365.135
 757.46;11608.044;   -0.879;32240.424
 757.61;11559.846;    0.824;31969.059
 757.75;11525.582;   -1.098;31684.139
 757.89;11445.429;   -0.214;31292.068
 758.03;11328.176;    0.912;30884.139
 758.17;11120.989;    2.119;30450.965
 758.32;10822.462;    1.636;30128.824
 758.46;10409.341;    2.052;29931.193
 758.60; 9876.396;    1.455;29906.615
 758.74; 9191.978;    3.671;29944.088
 758.88; 8380.439;    2.902;30094.109
 759.03; 7496.857;    3.548;30300.002
 759.17; 6610.286;    2.017;30567.328
 759.31; 5753.648;    2.357;30773.002
 759.45; 4968.044;    1.798;30948.215
 759.59; 4284.549;    1.167;31044.641
 759.73; 3742.417;    0.369;31106.242
 759.88; 3370.264;    0.976;31115.412
 760.02; 3166.945;   -1.174;31149.852
 760.16; 3123.934;   -0.957;31137.678
 760.30; 3223.912;   -0.707;31051.586
 760.44; 3477.956;   -0.157;30901.373
 760.59; 3854.901;    0.340;30675.434
 760.73; 4322.396;    1.386;30389.992
 760.87; 4836.615;    0.674;30094.385
 761.01; 5351.363;    1.090;29735.393
 761.15; 5827.824;    1.207;29324.318
 761.29; 6227.802;   -0.176;28979.307
 761.44; 6492.000;   -0.479;28648.729
 761.58; 6615.187;   -0.776;28402.326
 761.72; 6597.934;   -1.355;28258.615
 761.86; 6487.495;   -0.271;28175.031
 762.00; 6322.989;    1.083;28120.748
 762.14; 6118.352;    1.729;28087.965
 762.29; 5919.648;    2.693;28095.596
 762.43; 5768.725;    3.243;28155.793
 762.57; 5665.934;    3.369;28237.672
 762.71; 5630.967;    3.319;28285.982
 762.85; 5664.615;    3.388;28318.557
 762.99; 5728.637;    3.776;28338.365
 763.14; 5831.341;    3.255;28385.861
 763.28; 5967.099;    3.205;28435.822
 763.42; 6114.593;    1.921;28518.520
 763.56; 6274.396;    1.738;28597.916
 763.70; 6457.539;    0.169;28735.053
 763.84; 6647.275;   -0.633;28914.518
 763.99; 6846.637;   -3.088;29170.414
 764.13; 7033.780;   -3.043;29407.545
 764.27; 7224.923;   -2.069;29593.986
 764.41; 7410.483;   -1.681;29706.469
 764.55; 7593.363;   -1.840;29753.453
 764.69; 7758.527;    0.243;29679.193
 764.84; 7913.583;    0.436;29518.785
 764.98; 8057.517;    2.843;29235.859
 765.12; 8222.242;    3.617;28940.215
 765.26; 8368.198;    3.195;28609.012
 765.40; 8508.571;    4.636;28266.301
 765.54; 8661.385;    5.814;27931.889
 765.68; 8824.483;    5.150;27649.605
 765.83; 8974.088;    5.062;27364.127
 765.97; 9129.318;    3.293;27085.615
 766.11; 9284.813;    1.510;26839.889
 766.25; 9460.308;    1.550;26652.395
 766.39; 9618.176;    0.881;26483.518
 766.53; 9759.429;    0.302;26321.996
 766.67; 9891.450;    0.538;26189.869
 766.82;10022.726;    0.074;26136.471
 766.96;10143.714;    1.567;26154.650
 767.10;10239.429;    1.760;26189.424
 767.24;10296.198;    0.671;26211.564
 767.38;10374.901;    0.045;26318.605
 767.52;10449.121;   -0.024;26484.164
 767.66;10500.308;   -0.793;26683.682
 767.80;10534.527;   -0.014;26893.383
 767.95;10579.253;   -1.345;27130.775
 768.09;10616.286;   -1.024;27305.564
 768.23;10646.506;   -0.974;27443.834
 768.37;10645.736;    0.414;27478.564
 768.51;10648.967;    0.169;27483.795
 768.65;10665.033;    0.957;27409.982
 768.79;10676.044;    1.026;27229.471
 768.93;10669.736;    1.557;26954.631
 769.08;10673.582;    0.093;26696.195
 769.22;10698.088;    1.310;26493.889
 769.36;10738.066;   -0.736;26374.053
 769.50;10747.978;   -0.700;26224.068
 769.64;10770.594;   -1.583;26171.176
 769.78;10818.747;   -2.081;26234.402
 769.92;10864.176;   -2.164;26385.367
 770.06;10886.923;   -0.662;26563.002
 770.20;10883.648;   -1.755;26743.156
 770.35;10871.934;   -0.176;26899.545
 770.49;10876.703;   -0.745;27048.148
 770.63;10858.000;    0.357;27086.906
 770.77;10819.297;    1.388;27052.453
 770.91;10795.538;    2.005;26946.164
 771.05;10786.066;    1.921;26807.471
 771.19;10792.418;    2.729;26598.754
 771.33;10805.934;    1.245;26351.357
 771.47;10818.571;    1.776;26104.508
 771.61;10842.022;    1.350;25929.719
 771.76;10862.132;    0.614;25767.535
 771.90;10875.692;    0.264;25658.709
 772.04;10880.506;   -0.100;25573.346
 772.18;10893.714;    0.398;25557.232
 772.32;10901.824;    0.900;25574.945
 772.46;10910.374;    1.807;25608.900
 772.60;10914.439;    2.148;25591.068
 772.74;10937.406;    1.998;25593.129
 772.88;10953.736;    2.405;25563.746
 773.02;10969.230;    2.912;25527.176
 773.16;10958.483;    4.195;25435.641
 773.31;10952.132;    5.064;25344.014
 773.45;10937.868;    4.957;25250.535
 773.59;10916.352;    5.226;25185.557
 773.73;10866.044;    6.071;25079.508
 773.87;10817.450;    5.598;24974.605
 774.01;10784.286;    5.871;24897.021
 774.15;10753.890;    4.445;24818.357
 774.29;10719.802;    4.405;24730.051
 774.43;10707.473;    3.207;24654.148
 774.57;10710.396;    3.110;24585.736
 774.71;10723.736;    1.788;24520.986
 774.85;10730.967;    1.910;24429.307
 774.99;10729.274;    0.969;24319.357
 775.14;10738.791;   -0.538;24215.670
 775.28;10773.143;   -0.974;24143.156
 775.42;10786.439;   -1.071;24049.211
 775.56;10783.473;   -2.193;23961.814
 775.70;10777.121;   -1.700;23877.736
 775.84;10779.429;   -2.526;23856.861
 775.98;10775.978;   -1.767;23835.203
 776.12;10773.582;   -1.688;23847.004
 776.26;10733.956;   -1.138;23814.830
 776.40;10697.143;   -2.412;23806.072
 776.54;10671.099;   -0.395;23800.650
 776.68;10647.077;   -0.402;23808.986
 776.82;10592.022;    0.690;23758.945
 776.96;10570.374;    0.388;23739.291
 777.10;10545.956;    1.767;23717.850
 777.24;10543.604;    0.017;23708.758
 777.39;10549.429;    1.071;23732.660
 777.53;10557.538;   -0.698;23782.109
 777.67;10572.330;   -0.557;23854.535
 777.81;10629.582;   -1.983;24005.861
 777.95;10641.429;   -0.690;24091.088
 778.09;10687.121;   -1.621;24249.795
 778.23;10703.978;   -0.652;24395.297
 778.37;10717.538;    0.712;24543.768
 778.51;10724.022;    1.471;24613.117
 778.65;10708.747;    0.321;24639.139
 778.79;10689.780;    2.376;24610.594
 778.93;10695.341;    0.217;24598.520
 779.07;10643.187;    1.310;24449.535
 779.21;10617.362;    3.121;24308.977
 779.35;10594.527;    2.957;24100.002
 779.49;10579.429;    2.131;23921.014
 779.63;10565.297;    3.986;23733.174
 779.77;10556.703;    2.436;23578.699
 779.91;10539.626;    2.662;23473.889
 780.05;10549.494;    2.169;23486.539
 780.19;10548.022;    0.414;23554.051
 780.33;10533.450;   -0.336;23705.785
 780.47;10521.341;   -0.005;23899.270
 780.61;10538.726;   -0.983;24168.023
 780.76;10534.000;   -0.519;24403.621
 780.90;10545.099;    0.140;24603.957
 781.04;10559.274;   -0.129;24737.879
 781.18;10572.923;    0.531;24776.014
 781.32;10588.813;    0.290;24718.822
 781.46;10601.099;   -0.107;24609.404
 781.60;10590.352;    0.662;24414.041
 781.74;10592.747;    0.102;24220.814
 781.88;10563.099;    0.986;24019.746
 782.02;10520.571;    0.960;23827.156
 782.16;10496.286;    0.243;23685.898
 782.30;10457.582;    1.131;23565.215
 782.44;10420.682;    2.062;23506.611
 782.58;10387.780;    2.236;23507.490
 782.72;10337.604;    2.738;23489.373
 782.86;10311.473;    1.379;23500.947
 783.00;10299.978;    2.071;23532.422
 783.14;10282.813;    2.274;23552.881
 783.28;10288.726;    1.252;23563.574
 783.42;10305.230;    1.712;23520.967
 783.56;10308.462;   -0.214;23390.525
 783.70;10322.330;   -0.298;23246.805
 783.84;10334.967;    0.062;23074.992
 783.98;10378.857;   -1.536;22885.891
 784.12;10355.099;   -0.900;22689.488
 784.26;10339.385;   -1.231;22551.520
 784.40;10298.483;   -1.490;22441.098
 784.54;10286.198;   -0.631;22435.691
 784.68;10268.638;    0.738;22455.154
 784.82;10245.670;    0.636;22505.719
 784.96;10188.462;    1.957;22566.879
 785.10;10192.132;    1.179;22658.252
 785.24;10184.638;    2.614;22709.707
 785.38;10182.813;    2.426;22730.520
 785.52;10169.429;    3.500;22703.850
 785.66;10147.209;    1.721;22647.785
 785.80;10131.406;    2.967;22564.250
 785.94;10120.352;    2.236;22509.729
 786.08;10085.121;    1.890;22404.041
 786.22;10066.594;    0.579;22339.023
 786.36;10029.121;    0.786;22272.164
 786.50;10016.659;   -0.440;22264.480
 786.64; 9992.726;   -1.052;22287.365
 786.78; 9962.813;   -2.640;22352.367
 786.92; 9930.527;   -2.624;22397.840
 787.06; 9907.736;   -2.164;22480.100
 787.20; 9875.011;   -1.957;22536.736
 787.34; 9872.308;   -3.288;22615.357
 787.48; 9832.286;   -2.157;22600.002
 787.62; 9820.527;   -1.364;22605.920
 787.76; 9805.077;   -0.643;22570.316
 787.89; 9790.550;   -1.345;22536.301
 788.03; 9772.857;   -0.729;22484.135
 788.17; 9741.494;    0.045;22411.529
 788.31; 9694.352;    1.519;22312.945
 788.45; 9672.220;    0.064;22265.414
 788.59; 9639.318;   -0.071;22163.021
 788.73; 9603.253;   -0.202;22063.109
 788.87; 9563.362;    0.900;21901.250
 789.01; 9540.615;    0.436;21734.367
 789.15; 9533.165;    1.071;21573.564
 789.29; 9529.582;    0.598;21413.633
 789.43; 9516.901;    1.062;21250.936
 789.57; 9507.253;    0.207;21115.824
 789.71; 9497.736;    0.719;20988.365
 789.85; 9485.494;   -1.298;20891.271
 789.99; 9470.132;   -1.671;20821.830
 790.13; 9460.791;   -2.974;20781.395
 790.27; 9435.670;   -2.767;20734.250
 790.41; 9396.264;   -2.593;20689.881
 790.55; 9363.978;   -1.405;20672.078
 790.69; 9353.934;   -1.993;20682.881
 790.83; 9313.648;    0.005;20661.936
 790.97; 9285.011;   -0.907;20647.996
 791.11; 9238.791;    0.157;20596.279
 791.24; 9224.571;   -0.726;20597.996
 791.38; 9216.638;   -1.062;20573.621
 791.52; 9212.352;   -0.526;20533.957
 791.66; 9184.813;   -0.643;20445.488
 791.80; 9186.770;   -0.450;20403.738
 791.94; 9159.582;    0.671;20320.250
 792.08; 9139.780;   -0.679;20267.176
 792.22; 9105.341;   -0.595;20191.535
 792.36; 9070.989;    0.807;20141.768
 792.50; 9027.890;    1.138;20091.098
 792.64; 9003.297;    1.836;20083.490
 792.78; 8973.736;    1.186;20098.078
 792.92; 8964.967;    0.760;20173.709
 793.06; 8953.604;    1.824;20284.250
 793.20; 8952.176;    2.179;20470.785
 793.34; 8944.989;    1.348;20670.230
 793.47; 8934.594;    0.207;20861.053
 793.61; 8919.846;   -1.138;21053.688
 793.75; 8901.802;   -1.136;21203.119
 793.89; 8886.615;   -0.119;21306.555
 794.03; 8882.682;    0.131;21352.139
 794.17; 8863.758;    1.129;21264.641
 794.31; 8876.220;    0.036;21166.309
 794.45; 8882.923;    0.224;21012.746
 794.59; 8884.176;    1.398;20825.539
 794.73; 8882.527;    2.090;20632.373
 794.87; 8870.550;    1.626;20444.014
 795.01; 8856.945;    1.386;20254.889
 795.15; 8822.945;    0.131;20057.738
 795.28; 8779.450;    1.424;19823.393
 795.42; 8751.956;    1.712;19646.328
 795.56; 8711.626;    1.814;19424.594
 795.70; 8681.318;    1.598;19219.262
 795.84; 8672.066;    2.605;19024.383
 795.98; 8649.846;    1.826;18838.785
 796.12; 8656.418;    1.967;18709.535
 796.26; 8667.604;    1.512;18650.691
 796.40; 8662.044;    1.757;18598.383
 796.54; 8688.703;    0.340;18647.414
 796.68; 8695.099;   -0.138;18700.508
 796.81; 8703.517;   -1.174;18786.453
 796.95; 8714.176;   -0.786;18868.459
 797.09; 8720.791;   -1.183;18956.662
 797.23; 8704.594;   -0.205;18991.021
 797.37; 8698.594;    0.188;19016.461
 797.51; 8673.077;    1.690;18975.916
 797.65; 8671.297;    1.493;18930.682
 797.79; 8652.550;    0.529;18848.555
 797.93; 8634.154;   -0.802;18757.957
 798.07; 8619.714;   -0.043;18670.594
 798.20; 8603.956;   -1.393;18607.881
 798.34; 8585.780;   -1.814;18543.068
 798.48; 8571.121;   -3.050;18522.662
 798.62; 8540.506;   -2.071;18473.135
 798.76; 8504.483;   -1.174;18442.775
 798.90; 8453.561;   -0.348;18385.717
 799.04; 8412.483;   -2.240;18347.156
 799.18; 8357.253;   -1.167;18248.773
 799.32; 8316.308;   -2.002;18190.461
 799.45; 8267.582;   -1.148;18095.059
 799.59; 8233.450;   -2.269;18033.967
 799.73; 8210.264;   -2.205;17954.346
 799.87; 8209.846;   -2.307;17918.947
 800.01; 8191.978;   -0.129;17840.746
 800.15; 8198.462;   -0.707;17835.938
 800.29; 8186.835;   -0.233;17788.307
 800.43; 8192.220;   -0.479;17753.605
 800.56; 8190.308;   -0.090;17706.678
 800.70; 8188.439;   -0.545;17660.186
 800.84; 8173.341;   -0.510;17612.631
 800.98; 8172.967;   -0.650;17587.586
 801.12; 8162.747;   -1.024;17514.230
 801.26; 8155.956;   -2.269;17452.301
 801.40; 8130.571;   -2.148;17378.098
 801.53; 8109.187;   -2.679;17330.852
 801.67; 8065.341;   -2.938;17253.793
 801.81; 8032.308;   -3.517;17193.129
 801.95; 7988.593;   -4.033;17122.727
 802.09; 7954.242;   -4.336;17099.768
 802.23; 7920.330;   -3.757;17079.545
 802.37; 7906.989;   -3.783;17100.605
 802.50; 7896.110;   -3.424;17104.240
 802.64; 7896.747;   -2.707;17150.414
 802.78; 7890.000;   -1.395;17164.498
 802.92; 7891.385;   -1.183;17195.977
 803.06; 7880.989;    0.005;17182.068
 803.20; 7877.055;    1.864;17182.691
 803.34; 7850.923;    0.852;17121.135
 803.47; 7814.813;    2.083;17041.768
 803.61; 7775.714;    2.329;16938.707
 803.75; 7750.549;    2.874;16880.053
 803.89; 7707.011;    2.348;16793.518
 804.03; 7677.978;    2.664;16730.586
 804.17; 7655.539;    2.157;16665.469
 804.31; 7652.615;    2.579;16642.633
 804.44; 7661.604;    2.595;16634.336
 804.58; 7680.527;    1.902;16633.156
 804.72; 7692.330;    1.081;16618.508
 804.86; 7715.517;    1.226;16632.586
 805.00; 7730.967;    0.748;16671.145
 805.14; 7742.857;   -0.250;16714.367
 805.27; 7743.758;    0.986;16794.316
 805.41; 7743.033;    0.407;16914.186
 805.55; 7738.747;    1.386;17048.297
 805.69; 7733.495;    1.274;17191.510
 805.83; 7745.429;    2.119;17315.584
 805.97; 7739.517;    1.445;17379.281
 806.10; 7718.659;    2.452;17405.154
 806.24; 7700.308;    1.274;17365.699
 806.38; 7681.912;    1.357;17266.992
 806.52; 7659.561;    0.417;17132.328
 806.66; 7639.055;    0.310;16954.154
 806.80; 7596.923;   -0.774;16775.328
 806.93; 7578.703;   -0.643;16626.459
 807.07; 7561.407;   -0.507;16512.500
 807.21; 7546.835;    1.176;16427.221
 807.35; 7512.923;    0.340;16357.176
 807.49; 7492.637;    0.471;16324.755
 807.62; 7464.044;    1.236;16323.167
 807.76; 7435.934;    2.871;16328.755
 807.90; 7402.681;    2.988;16350.376
 808.04; 7372.549;    1.681;16333.069
 808.18; 7342.242;    1.055;16318.138
 808.31; 7325.692;    1.490;16296.612
 808.45; 7299.429;    0.883;16264.167
 808.59; 7268.505;   -0.052;16197.040
 808.73; 7234.857;   -2.126;16119.710
 808.87; 7205.692;   -1.424;16023.230
 809.01; 7185.319;   -1.460;15934.233
 809.14; 7155.583;   -1.100;15833.574
 809.28; 7130.198;   -1.002;15756.700
 809.42; 7108.286;   -0.043;15671.336
 809.56; 7098.505;    0.245;15609.538
 809.70; 7099.495;    1.595;15555.469
 809.83; 7091.956;    1.321;15516.062
 809.97; 7074.615;    2.024;15497.727
 810.11; 7066.505;    0.855;15479.900
 810.25; 7050.044;    0.643;15451.907
 810.39; 7028.000;    0.521;15430.891
 810.52; 7002.879;    1.252;15406.974
 810.66; 6981.934;    1.074;15399.224
 810.80; 6942.352;    1.890;15342.831
 810.94; 6921.758;    0.940;15302.795
 811.07; 6889.868;    1.052;15254.422
 811.21; 6863.517;    0.493;15202.767
 811.35; 6838.791;    0.252;15132.755
 811.49; 6815.209;   -0.031;15073.100
 811.63; 6770.308;   -4.567;14999.517
 811.76; 6770.769;   -0.850;14898.033
 811.90; 6743.231;    1.033;14885.116

